timestamps,TP9,AF7,AF8,TP10,Right AUX,Marker
1540168015.873,-203.613,49.316,9.766,-90.820,13.672,0
1540168015.877,-183.594,48.828,8.789,-72.266,19.043,0
1540168015.881,-160.645,45.898,10.742,-61.035,32.715,0
1540168015.885,-147.949,42.969,14.160,-57.617,-7.812,0
1540168015.889,-131.348,40.527,15.625,-45.410,32.715,0
1540168015.893,-119.629,33.203,20.020,-35.156,64.941,0
1540168015.897,-116.211,33.203,22.461,-27.344,31.738,0
1540168015.901,-111.328,32.227,21.973,-22.461,56.641,0
1540168015.905,-111.328,26.855,21.484,-21.484,43.457,0
1540168015.909,-114.258,25.879,18.066,-12.695,-27.832,0
1540168015.913,-106.445,25.879,14.160,-4.395,-20.020,0
1540168015.916,-102.539,22.461,22.461,0.977,70.312,0
1540168015.920,-90.820,25.391,30.762,10.254,106.445,0
1540168015.924,-76.172,26.855,27.832,20.996,32.227,0
1540168015.928,-75.195,21.973,27.344,20.508,1.953,0
1540168015.932,-75.195,17.578,28.320,15.137,53.223,0
1540168015.936,-67.871,12.695,30.273,26.855,59.082,0
1540168015.940,-64.941,12.207,28.320,34.180,20.508,0
1540168015.944,-68.359,15.137,26.367,32.715,34.180,0
1540168015.948,-73.242,16.113,24.902,32.715,43.945,0
1540168015.952,-77.637,13.672,25.391,29.785,-6.836,0
1540168015.955,-85.938,13.184,28.320,33.691,-31.738,0
1540168015.959,-96.191,16.113,29.785,40.039,-3.418,0
1540168015.963,-98.633,17.578,29.297,41.504,16.602,0
1540168015.967,-86.426,16.602,28.809,46.875,6.836,0
1540168015.971,-76.660,13.672,27.832,41.992,-19.531,0
1540168015.975,-87.402,16.602,32.715,39.551,18.555,0
1540168015.979,-90.820,16.113,35.156,40.039,79.102,0
1540168015.983,-82.031,11.719,28.809,38.574,50.293,0
1540168015.987,-82.520,15.137,29.297,40.527,50.781,0
1540168015.991,-92.773,15.625,31.738,38.086,12.695,0
1540168015.995,-96.191,16.113,30.273,47.363,8.301,0
1540168015.998,-92.773,16.602,30.762,52.246,51.270,0
1540168016.002,-81.055,13.672,32.227,47.363,83.496,0
1540168016.006,-77.148,15.137,32.227,42.969,54.688,0
1540168016.010,-79.590,18.066,32.227,43.945,-12.207,0
1540168016.014,-78.125,16.113,27.832,50.293,7.324,0
1540168016.018,-81.543,12.695,28.320,51.270,31.250,0
1540168016.022,-74.707,13.672,29.785,52.246,52.734,0
1540168016.026,-70.312,14.648,19.531,57.617,33.203,0
1540168016.030,-75.195,16.602,23.438,63.477,24.414,0
1540168016.034,-71.289,21.484,35.645,60.059,-3.418,0
1540168016.038,-67.871,13.672,30.762,43.945,-42.969,0
1540168016.041,-67.383,16.602,31.250,53.711,7.812,0
1540168016.045,-73.730,19.043,34.180,60.059,54.688,0
1540168016.049,-80.566,18.066,31.738,47.852,34.668,0
1540168016.053,-78.613,25.879,34.180,42.969,3.906,0
1540168016.057,-83.984,15.137,26.367,40.039,-33.691,0
1540168016.061,-84.961,12.207,25.391,44.922,7.324,0
1540168016.065,-86.914,19.043,32.227,44.922,61.523,0
1540168016.069,-80.566,19.043,33.203,43.457,-3.906,0
1540168016.073,-73.730,19.531,30.762,46.387,-28.320,0
1540168016.077,-76.172,20.508,30.273,45.898,90.332,0
1540168016.080,-79.102,20.020,33.691,46.875,100.098,0
1540168016.084,-76.172,22.949,30.273,46.387,58.594,0
1540168016.088,-70.801,19.531,32.227,41.992,72.754,0
1540168016.092,-60.547,14.648,38.574,44.434,62.988,0
1540168016.096,-46.387,18.555,37.598,46.387,71.289,0
1540168016.100,-41.504,18.066,34.180,42.969,88.379,0
1540168016.104,-27.344,16.113,28.320,48.340,15.625,0
1540168016.108,-25.879,15.137,25.879,48.340,28.809,0
1540168016.112,-30.762,17.578,29.785,49.316,58.594,0
1540168016.116,-28.320,18.066,32.227,46.875,-6.348,0
1540168016.120,-20.020,20.020,33.691,36.133,7.812,0
1540168016.123,-17.090,22.461,34.180,33.203,21.973,0
1540168016.127,-18.066,17.090,42.480,35.645,10.742,0
1540168016.131,-5.859,13.672,45.898,43.945,15.625,0
1540168016.135,4.883,17.578,37.598,32.227,32.227,0
1540168016.139,7.324,21.484,30.762,5.859,20.996,0
1540168016.143,12.695,24.414,31.738,6.836,0.000,0
1540168016.147,21.484,29.297,30.762,16.602,2.930,0
1540168016.151,30.273,24.902,29.785,9.277,14.648,0
1540168016.155,34.180,21.973,29.785,7.324,7.324,0
1540168016.159,18.555,24.414,30.273,15.137,12.207,1
1540168016.163,18.555,21.973,34.180,23.926,57.617,0
1540168016.166,26.855,22.461,33.691,31.250,40.527,0
1540168016.170,13.184,22.949,31.738,29.297,-10.742,0
1540168016.174,12.695,23.438,29.297,35.156,1.953,0
1540168016.178,26.855,24.414,27.344,40.527,0.488,0
1540168016.182,32.715,21.484,24.902,37.598,46.387,0
1540168016.186,40.039,21.973,26.855,38.086,37.109,0
1540168016.190,45.410,27.344,31.738,36.621,3.906,0
1540168016.194,48.340,28.809,36.133,39.062,95.215,0
1540168016.198,57.129,31.250,41.992,51.758,72.266,0
1540168016.202,59.570,18.555,36.133,38.086,14.648,0
1540168016.205,73.730,8.789,33.203,38.086,11.719,0
1540168016.209,75.684,24.414,34.668,62.012,25.391,0
1540168016.213,71.289,26.855,25.391,49.805,-2.441,0
1540168016.217,85.938,25.391,22.461,31.250,-54.688,0
1540168016.221,102.051,32.715,28.320,29.785,-57.129,0
1540168016.225,106.934,33.691,30.273,30.273,3.906,0
1540168016.229,111.328,27.832,32.227,37.109,13.672,0
1540168016.233,125.488,25.391,34.668,39.062,28.320,0
1540168016.237,140.137,27.344,36.133,35.645,34.180,0
1540168016.241,143.066,27.344,32.715,43.945,-47.363,0
1540168016.245,149.414,23.926,30.762,49.805,-21.484,0
1540168016.248,166.016,17.090,29.785,48.828,58.594,0
1540168016.252,157.227,16.113,30.273,41.992,41.016,0
1540168016.256,151.367,21.973,35.645,38.574,8.301,0
1540168016.260,155.273,24.414,36.133,45.410,26.367,0
1540168016.264,144.531,26.855,30.762,43.945,25.391,0
1540168016.268,146.973,25.391,26.367,34.668,44.434,0
1540168016.272,152.344,22.949,29.785,36.133,64.941,0
1540168016.276,146.973,21.484,34.668,41.992,-15.137,0
1540168016.280,148.438,18.555,35.645,36.621,4.395,0
1540168016.284,160.156,18.555,36.621,37.598,20.508,0
1540168016.288,161.621,17.578,34.180,38.086,10.742,0
1540168016.291,166.504,20.020,28.809,37.598,40.527,0
1540168016.295,175.293,26.367,25.391,41.016,48.340,0
1540168016.299,178.711,26.367,27.832,40.039,25.391,0
1540168016.303,181.152,20.996,26.855,36.133,-3.418,0
1540168016.307,178.223,21.484,24.902,40.039,14.160,0
1540168016.311,178.711,22.461,28.809,41.992,19.043,0
1540168016.315,186.035,20.996,25.391,35.645,-68.359,0
1540168016.319,203.613,20.020,22.461,34.668,-16.602,0
1540168016.323,214.355,18.555,26.855,35.645,67.383,0
1540168016.327,215.332,19.531,27.832,41.992,14.160,0
1540168016.330,226.074,21.484,28.320,47.852,74.219,0
1540168016.334,236.816,23.926,27.344,44.434,62.988,0
1540168016.338,236.816,23.926,25.879,43.945,15.137,0
1540168016.342,234.375,24.414,25.879,44.922,47.852,0
1540168016.346,239.258,22.949,20.020,45.410,23.926,0
1540168016.350,241.211,21.484,20.020,44.434,36.621,0
1540168016.354,249.023,22.461,23.438,41.992,26.367,0
1540168016.358,261.719,23.438,22.461,45.898,-40.039,0
1540168016.362,255.859,22.461,20.996,47.852,-17.090,0
1540168016.366,250.488,23.438,20.508,42.969,-18.066,0
1540168016.370,243.164,22.949,22.461,36.133,-6.836,0
1540168016.373,235.840,21.484,26.367,38.574,23.926,0
1540168016.377,240.234,19.043,20.996,42.969,22.949,0
1540168016.381,250.000,22.461,13.672,45.410,7.812,0
1540168016.385,254.395,24.414,18.066,39.062,21.973,0
1540168016.389,253.906,23.926,23.926,31.738,36.133,0
1540168016.393,262.695,22.461,26.367,39.551,-0.977,0
1540168016.397,260.254,22.949,27.344,45.410,-1.953,0
1540168016.401,251.953,28.809,29.785,42.480,22.461,0
1540168016.405,252.441,23.926,26.367,40.527,16.113,0
1540168016.409,250.000,18.066,24.902,41.504,20.020,0
1540168016.413,247.559,22.461,26.367,44.434,-18.555,0
1540168016.416,237.793,25.391,23.926,38.574,15.625,0
1540168016.420,238.770,24.414,24.414,31.738,68.359,0
1540168016.424,241.699,24.902,22.949,35.645,24.414,0
1540168016.428,223.633,23.438,17.578,32.227,22.949,0
1540168016.432,212.402,25.879,20.996,28.809,51.758,0
1540168016.436,221.191,29.297,21.973,28.809,27.832,0
1540168016.440,219.238,28.320,17.578,32.715,15.625,0
1540168016.444,195.312,25.879,23.438,33.203,14.648,0
1540168016.448,182.617,21.484,28.809,19.531,29.785,0
1540168016.452,196.289,15.137,27.832,8.789,21.973,0
1540168016.455,222.656,15.137,28.320,18.066,-5.859,0
1540168016.459,232.910,16.113,33.203,24.414,21.484,0
1540168016.463,233.887,16.113,33.203,24.414,66.406,0
1540168016.467,244.629,15.625,30.762,28.809,74.707,0
1540168016.471,240.723,15.625,29.785,23.926,34.180,0
1540168016.475,235.840,17.578,25.879,20.996,51.270,0
1540168016.479,243.652,19.531,23.438,23.926,57.129,0
1540168016.483,241.211,15.137,22.461,21.973,20.996,0
1540168016.487,235.840,11.719,24.902,20.996,62.988,0
1540168016.491,230.469,14.160,26.855,25.391,-29.297,0
1540168016.495,220.215,16.113,26.855,28.809,-9.277,0
1540168016.498,216.309,15.625,27.344,25.879,7.812,0
1540168016.502,217.285,14.648,29.297,26.855,-12.207,0
1540168016.506,216.797,13.184,26.367,29.785,23.926,0
1540168016.510,216.797,15.137,24.902,30.273,34.668,0
1540168016.514,210.449,19.043,30.273,33.203,103.027,0
1540168016.518,211.914,19.043,32.715,27.832,64.453,0
1540168016.522,217.773,20.020,31.250,28.320,24.414,0
1540168016.526,210.938,18.555,28.320,32.715,53.223,0
1540168016.530,204.102,18.066,30.762,34.180,41.504,0
1540168016.534,211.426,16.602,32.227,34.668,31.738,0
1540168016.538,220.703,16.113,29.297,33.691,23.438,0
1540168016.541,217.285,16.602,29.297,37.109,33.203,0
1540168016.545,217.285,19.531,29.785,37.109,10.254,0
1540168016.549,214.844,22.461,29.297,33.691,0.488,0
1540168016.553,206.055,20.996,28.320,26.855,45.898,0
1540168016.557,202.148,20.996,25.879,27.832,23.926,0
1540168016.561,205.078,20.996,25.879,32.227,-6.836,0
1540168016.565,214.844,22.461,24.902,28.320,-6.348,0
1540168016.569,223.145,25.391,24.902,21.973,31.250,0
1540168016.573,223.633,25.391,26.855,24.902,30.273,0
1540168016.577,222.656,26.855,25.879,28.320,2.441,0
1540168016.580,220.215,29.297,23.438,27.832,59.570,0
1540168016.584,215.820,29.297,20.996,25.391,32.715,0
1540168016.588,214.355,26.855,18.066,20.508,-54.199,0
1540168016.592,207.520,25.879,15.625,21.973,-30.273,0
1540168016.596,216.797,24.902,19.531,29.297,58.594,0
1540168016.600,224.121,23.926,21.484,28.320,22.461,0
1540168016.604,222.168,20.508,19.531,20.996,28.809,0
1540168016.608,220.215,18.555,19.531,17.090,20.508,0
1540168016.612,222.168,20.508,18.555,20.508,-1.953,0
1540168016.616,226.074,21.484,18.066,22.461,38.574,0
1540168016.620,234.863,20.508,19.043,26.855,55.176,0
1540168016.623,255.371,21.484,19.531,34.668,80.078,0
1540168016.627,258.789,22.949,19.043,29.785,69.336,0
1540168016.631,243.652,21.973,19.043,23.926,86.914,0
1540168016.635,243.652,24.902,18.066,23.438,88.867,0
1540168016.639,240.234,26.855,20.508,26.367,63.477,0
1540168016.643,240.723,26.855,22.949,29.785,44.434,0
1540168016.647,252.930,28.320,14.648,22.461,58.594,0
1540168016.651,255.859,26.367,13.672,16.113,35.645,0
1540168016.655,250.977,24.414,19.043,15.625,-25.879,0
1540168016.659,226.562,20.508,22.949,15.137,1.953,0
1540168016.663,217.285,19.043,26.367,16.602,15.625,0
1540168016.666,218.750,19.043,23.438,15.137,-4.395,0
1540168016.670,219.727,19.043,23.438,17.090,-6.836,0
1540168016.674,222.656,20.996,25.879,21.973,2.441,0
1540168016.678,222.168,21.484,24.902,21.973,58.105,0
1540168016.682,222.656,20.508,24.414,26.855,9.277,0
1540168016.686,220.215,20.996,21.484,20.996,11.230,0
1540168016.690,216.309,22.461,21.973,17.578,55.176,0
1540168016.694,215.332,25.391,23.926,24.902,19.531,1
1540168016.698,215.332,27.832,23.438,25.879,22.461,0
1540168016.702,216.797,25.391,26.367,20.020,23.438,0
1540168016.705,223.145,23.438,29.785,16.113,-2.930,0
1540168016.709,221.680,24.902,28.809,17.578,20.508,0
1540168016.713,219.238,27.832,24.902,18.066,29.297,0
1540168016.717,218.262,27.344,24.414,12.695,12.695,0
1540168016.721,221.680,24.902,28.809,13.184,38.086,0
1540168016.725,222.656,28.809,29.785,17.578,68.359,0
1540168016.729,220.703,32.715,27.344,18.066,84.961,0
1540168016.733,222.656,30.762,26.855,19.531,45.410,0
1540168016.737,225.098,30.273,26.855,18.555,42.969,0
1540168016.741,225.098,27.344,27.344,18.066,65.430,0
1540168016.745,226.562,25.391,29.785,24.414,10.254,0
1540168016.748,224.609,26.367,31.250,27.832,-19.531,0
1540168016.752,226.562,22.461,31.250,25.391,40.527,0
1540168016.756,231.445,23.438,26.855,30.762,76.660,0
1540168016.760,234.863,23.926,25.391,31.250,10.254,0
1540168016.764,247.070,24.414,24.902,25.391,13.672,0
1540168016.768,255.371,26.855,25.879,22.949,55.664,0
1540168016.772,256.836,26.855,25.879,19.531,17.578,0
1540168016.776,260.254,27.344,25.391,23.926,-10.254,0
1540168016.780,259.277,25.879,27.344,27.344,24.902,0
1540168016.784,254.395,24.902,28.809,21.484,18.555,0
1540168016.788,256.836,27.344,29.785,20.508,34.180,0
1540168016.791,250.488,27.832,29.297,28.809,33.203,0
1540168016.795,237.305,24.902,25.879,24.902,46.387,0
1540168016.799,226.074,22.461,23.438,16.113,78.125,0
1540168016.803,217.285,21.973,24.414,12.695,91.309,0
1540168016.807,205.078,22.949,23.926,17.090,29.785,0
1540168016.811,200.684,24.414,23.926,23.438,18.066,0
1540168016.815,197.266,23.438,24.414,22.949,73.730,0
1540168016.819,195.312,23.926,28.320,21.973,50.293,0
1540168016.823,198.730,25.391,27.832,23.438,-5.371,0
1540168016.827,199.707,26.855,26.855,26.855,-13.672,0
1540168016.830,197.754,25.879,27.344,29.297,47.852,0
1540168016.834,194.824,23.438,24.902,24.902,8.789,0
1540168016.838,200.195,22.949,24.902,22.461,0.488,0
1540168016.842,217.773,20.996,26.367,28.320,-20.020,0
1540168016.846,231.445,22.949,27.832,28.320,-36.133,0
1540168016.850,237.793,24.414,27.832,22.949,29.297,0
1540168016.854,254.883,23.438,28.320,25.391,72.754,0
1540168016.858,258.789,23.438,29.785,29.785,52.734,0
1540168016.862,259.277,24.414,30.762,28.320,47.363,0
1540168016.866,268.066,24.902,31.738,27.344,41.504,0
1540168016.870,278.320,26.855,31.250,22.949,50.293,0
1540168016.873,278.320,25.391,31.738,23.926,85.449,0
1540168016.877,274.902,21.973,31.250,30.762,6.348,0
1540168016.881,268.066,20.508,28.809,29.785,-11.230,0
1540168016.885,260.742,21.484,29.297,25.879,66.895,0
1540168016.889,257.812,22.949,29.785,23.926,8.789,0
1540168016.893,253.418,19.531,29.785,22.461,-3.418,0
1540168016.897,255.371,19.043,30.273,26.855,81.543,0
1540168016.901,255.371,24.902,30.273,23.926,47.363,0
1540168016.905,250.977,24.902,31.738,12.695,-8.789,0
1540168016.909,251.953,22.949,29.785,16.602,1.953,0
1540168016.913,257.324,23.926,28.809,23.438,18.555,0
1540168016.916,248.535,22.949,26.367,20.508,50.293,0
1540168016.920,241.699,20.508,29.785,22.949,52.734,0
1540168016.924,247.559,23.438,31.738,30.762,29.297,0
1540168016.928,243.652,28.320,25.879,23.926,37.598,0
1540168016.932,234.375,24.902,25.391,11.719,99.609,0
1540168016.936,235.352,22.949,31.250,10.742,74.707,0
1540168016.940,231.934,27.344,29.297,12.207,-18.066,0
1540168016.944,224.121,26.855,26.367,10.254,-0.977,0
1540168016.948,218.262,23.438,27.832,6.348,-4.395,0
1540168016.952,221.191,22.461,27.832,4.883,14.648,0
1540168016.955,222.656,25.879,26.855,2.441,67.871,0
1540168016.959,216.309,27.344,26.367,7.812,72.266,0
1540168016.963,212.891,25.391,25.391,6.348,47.363,0
1540168016.967,217.773,22.461,25.879,0.000,10.742,0
1540168016.971,214.844,24.414,27.832,1.953,18.066,0
1540168016.975,201.172,26.855,28.320,8.301,20.020,0
1540168016.979,193.848,27.832,33.691,13.672,41.992,0
1540168016.983,190.918,27.832,35.645,14.160,40.527,0
1540168016.987,180.176,25.879,34.668,11.230,12.207,0
1540168016.991,169.434,24.414,35.645,15.137,63.965,0
1540168016.995,170.898,28.320,38.086,20.020,53.711,0
1540168016.998,174.316,30.273,37.598,20.020,-18.555,0
1540168017.002,168.457,24.902,34.668,17.090,0.977,0
1540168017.006,152.344,25.391,34.180,16.113,87.891,0
1540168017.010,149.902,30.273,35.645,23.926,50.781,0
1540168017.014,148.438,29.785,35.645,26.367,-31.738,0
1540168017.018,136.719,28.320,31.738,20.020,-51.270,0
1540168017.022,138.184,27.832,32.715,18.555,-38.086,0
1540168017.026,144.043,25.879,31.250,20.996,16.602,0
1540168017.030,149.902,26.367,32.227,21.484,53.711,0
1540168017.034,160.645,24.902,33.203,17.578,-1.953,0
1540168017.038,169.434,27.344,30.762,16.113,-7.812,0
1540168017.041,169.434,32.227,33.203,20.020,9.766,0
1540168017.045,175.781,25.391,33.691,24.414,-16.602,0
1540168017.049,190.430,22.949,33.691,28.320,7.812,0
1540168017.053,201.660,28.320,33.691,28.809,-17.090,0
1540168017.057,203.613,31.250,27.832,28.320,-0.488,0
1540168017.061,202.637,31.250,28.320,25.391,49.316,0
1540168017.065,204.590,29.297,36.133,31.250,25.879,0
1540168017.069,208.496,26.367,40.039,31.738,19.043,0
1540168017.073,218.262,26.367,40.039,27.832,25.879,0
1540168017.077,214.844,31.250,41.992,36.133,22.461,0
1540168017.080,199.707,28.320,41.992,35.645,63.477,0
1540168017.084,200.684,24.414,40.039,27.344,6.836,0
1540168017.088,207.031,27.832,40.527,21.484,-7.324,0
1540168017.092,208.008,28.320,40.039,22.949,17.090,0
1540168017.096,214.355,25.879,40.039,29.297,-21.484,0
1540168017.100,225.098,23.926,39.062,29.297,-0.488,0
1540168017.104,236.328,25.391,38.086,21.973,15.137,0
1540168017.108,240.234,25.879,38.086,21.973,32.715,0
1540168017.112,241.699,22.461,35.156,24.902,67.871,0
1540168017.116,238.770,18.066,34.668,19.043,129.395,0
1540168017.120,233.887,17.578,37.109,20.996,86.914,0
1540168017.123,226.074,22.461,37.598,21.973,18.555,0
1540168017.127,231.445,21.973,31.250,16.113,69.824,0
1540168017.131,232.422,18.066,28.809,11.230,20.020,0
1540168017.135,229.980,19.531,34.180,6.348,-0.977,0
1540168017.139,230.957,19.043,35.156,6.836,26.855,0
1540168017.143,230.957,19.043,34.180,11.719,-22.461,0
1540168017.147,239.746,20.996,33.691,16.113,-18.555,0
1540168017.151,251.465,25.391,31.250,17.578,-20.996,0
1540168017.155,257.324,25.879,31.738,16.113,-28.809,0
1540168017.159,260.742,22.949,35.645,18.555,0.000,0
1540168017.163,264.648,25.391,36.133,21.973,9.277,0
1540168017.166,263.184,26.367,34.668,19.531,35.156,0
1540168017.170,264.160,27.344,36.621,16.602,30.762,0
1540168017.174,261.230,29.785,36.133,18.555,3.418,0
1540168017.178,260.254,28.320,34.180,21.484,56.152,0
1540168017.182,262.695,27.344,35.645,22.949,46.387,0
1540168017.186,269.043,24.414,36.133,18.555,2.441,0
1540168017.190,269.043,24.414,34.180,15.625,13.184,0
1540168017.194,264.160,28.320,29.785,18.555,-18.066,0
1540168017.198,265.137,30.762,26.855,20.996,-15.625,0
1540168017.202,268.066,32.227,26.855,17.090,50.293,0
1540168017.205,285.156,35.645,27.832,16.602,14.160,0
1540168017.209,301.758,34.668,28.809,17.090,-0.488,0
1540168017.213,299.805,31.250,27.344,21.973,45.898,0
1540168017.217,300.781,32.715,28.809,32.715,56.152,0
1540168017.221,307.617,31.250,31.738,29.297,31.250,0
1540168017.225,302.246,28.809,31.250,24.902,0.488,0
1540168017.229,296.875,29.297,28.320,24.902,44.434,0
1540168017.233,290.527,28.809,24.902,24.414,48.340,0
1540168017.237,293.457,27.344,26.367,24.414,-2.441,0
1540168017.241,287.109,29.297,27.344,23.438,60.547,0
1540168017.245,270.508,30.273,27.344,26.855,83.984,0
1540168017.248,270.508,27.344,30.762,32.227,22.461,0
1540168017.252,279.297,27.344,33.203,31.250,19.531,0
1540168017.256,285.156,29.785,34.180,30.762,14.648,0
1540168017.260,285.645,30.762,33.203,27.832,-9.766,0
1540168017.264,286.621,28.809,30.762,24.414,7.812,0
1540168017.268,292.969,26.367,34.180,24.902,44.922,0
1540168017.272,296.387,25.391,35.156,20.020,23.438,0
1540168017.276,295.898,24.902,33.691,22.949,-32.227,0
1540168017.280,291.016,22.949,39.062,27.344,-5.371,0
1540168017.284,283.691,20.508,38.086,24.414,44.434,0
1540168017.288,282.715,16.602,35.645,20.996,0.000,0
1540168017.291,278.809,17.578,34.668,20.508,-19.043,0
1540168017.295,281.738,20.508,29.297,22.949,31.738,0
1540168017.299,284.668,21.973,28.809,20.508,5.371,0
1540168017.303,281.738,21.484,30.273,21.973,42.969,0
1540168017.307,277.832,20.020,29.297,26.367,24.902,0
1540168017.311,275.879,20.996,28.809,27.344,5.859,0
1540168017.315,267.578,17.578,26.855,23.926,29.785,0
1540168017.319,259.766,16.113,28.809,20.508,60.547,0
1540168017.323,265.137,19.043,30.273,25.879,58.105,0
1540168017.327,269.043,20.020,26.367,28.320,-19.043,0
1540168017.330,273.438,19.531,27.832,23.926,-2.441,0
1540168017.334,279.297,17.578,29.785,18.555,47.363,0
1540168017.338,276.367,19.043,30.762,24.902,87.891,0
1540168017.342,278.320,21.973,31.250,31.738,39.062,0
1540168017.346,294.922,22.461,33.691,29.297,32.715,0
1540168017.350,296.387,19.043,32.227,29.785,30.273,0
1540168017.354,290.039,18.066,25.391,25.391,-6.348,0
1540168017.358,293.457,22.461,25.391,21.484,8.789,0
1540168017.362,295.898,23.438,26.367,23.926,-0.977,0
1540168017.366,291.016,24.414,23.926,21.484,-3.418,0
1540168017.370,289.551,21.973,25.391,17.090,22.949,0
1540168017.373,287.598,19.043,25.879,20.020,14.648,0
1540168017.377,281.738,24.414,25.391,22.949,53.223,0
1540168017.381,276.367,27.832,28.809,20.020,74.219,0
1540168017.385,280.762,22.949,29.297,20.508,27.832,0
1540168017.389,281.250,21.484,31.250,24.902,76.660,0
1540168017.393,271.973,23.926,31.250,25.879,89.844,0
1540168017.397,262.695,24.414,26.855,19.043,84.473,0
1540168017.401,254.395,25.391,26.855,19.043,111.816,0
1540168017.405,249.512,24.902,28.320,20.996,59.082,0
1540168017.409,234.375,20.996,27.344,22.461,17.090,0
1540168017.413,224.121,23.926,24.414,23.926,15.625,0
1540168017.416,228.027,24.902,22.461,20.020,27.344,0
1540168017.420,234.863,23.926,22.949,21.484,6.836,1
1540168017.424,236.816,24.902,26.367,30.762,15.625,0
1540168017.428,247.070,25.879,27.344,37.109,25.879,0
1540168017.432,244.629,26.367,24.902,32.715,-19.043,0
1540168017.436,235.352,23.438,22.461,22.949,-1.953,0
1540168017.440,234.863,24.902,22.949,22.949,15.625,0
1540168017.444,233.398,23.926,23.926,32.715,-14.160,0
1540168017.448,236.328,26.855,27.832,32.715,-37.109,0
1540168017.452,237.793,31.250,30.273,18.555,5.859,0
1540168017.455,239.258,30.273,23.438,18.066,30.762,0
1540168017.459,251.953,28.809,19.531,21.973,-2.441,0
1540168017.463,262.207,27.344,23.926,18.066,17.090,0
1540168017.467,272.461,27.344,26.855,18.066,26.367,0
1540168017.471,278.809,26.367,23.438,18.066,-1.953,0
1540168017.475,273.926,24.902,21.973,21.973,56.152,0
1540168017.479,273.438,26.855,22.949,23.926,56.641,0
1540168017.483,270.508,33.691,25.391,21.973,25.879,0
1540168017.487,268.555,34.180,27.344,22.461,-17.090,0
1540168017.491,270.020,31.250,23.926,19.043,-0.977,0
1540168017.495,272.949,31.738,20.996,17.578,59.570,0
1540168017.498,268.066,30.762,20.508,14.648,16.602,0
1540168017.502,267.090,31.250,21.973,12.207,36.621,0
1540168017.506,273.438,34.180,24.414,15.625,53.711,0
1540168017.510,274.902,34.668,22.461,18.066,9.277,0
1540168017.514,274.414,32.227,20.996,20.508,14.160,0
1540168017.518,263.672,30.273,21.973,19.531,45.410,0
1540168017.522,250.000,28.320,20.020,16.113,62.500,0
1540168017.526,242.676,30.762,20.508,16.602,34.180,0
1540168017.530,245.117,32.227,22.949,20.508,9.766,0
1540168017.534,246.094,30.762,23.438,18.066,11.230,0
1540168017.538,235.840,32.715,19.043,10.254,27.344,0
1540168017.541,233.398,31.738,18.066,15.137,4.883,0
1540168017.545,239.258,28.809,20.020,20.508,-3.418,0
1540168017.549,241.211,28.809,21.973,22.949,-7.324,0
1540168017.553,239.258,26.855,24.414,22.949,5.371,0
1540168017.557,232.422,27.344,25.879,25.391,31.250,0
1540168017.561,233.398,25.391,29.297,32.227,51.758,0
1540168017.565,242.188,19.043,25.879,34.668,34.180,0
1540168017.569,248.047,21.973,20.996,28.320,-14.160,0
1540168017.573,250.000,26.367,26.855,24.902,30.762,0
1540168017.577,249.023,24.902,31.250,33.691,10.742,0
1540168017.580,238.770,20.020,29.297,34.668,10.742,0
1540168017.584,228.516,21.484,26.855,29.297,34.668,0
1540168017.588,229.492,24.414,29.297,26.367,-6.348,0
1540168017.592,230.957,25.391,31.738,31.250,11.719,0
1540168017.596,232.910,24.414,25.391,34.180,5.371,0
1540168017.600,238.281,22.949,28.809,32.227,-27.832,0
1540168017.604,244.141,22.949,27.344,28.809,10.742,0
1540168017.608,237.305,24.414,22.461,31.250,0.977,0
1540168017.612,233.887,25.879,28.809,35.645,44.434,0
1540168017.616,228.516,24.414,31.738,30.762,48.828,0
1540168017.620,226.562,21.973,30.762,22.949,1.465,0
1540168017.623,225.098,21.484,30.273,19.531,31.250,0
1540168017.627,220.703,21.484,32.227,16.602,51.758,0
1540168017.631,221.680,20.508,33.691,17.578,77.148,0
1540168017.635,231.445,20.508,33.203,20.996,76.172,0
1540168017.639,233.887,20.996,33.203,19.531,40.527,0
1540168017.643,226.562,19.531,33.691,21.484,-3.418,0
1540168017.647,225.098,24.902,29.785,25.391,84.961,0
1540168017.651,226.562,25.391,25.391,22.949,36.133,0
1540168017.655,226.562,26.855,30.273,20.508,-42.969,0
1540168017.659,223.633,29.785,34.180,23.926,44.922,0
1540168017.663,222.168,25.391,32.227,24.902,33.691,0
1540168017.666,214.355,22.949,28.809,19.043,-48.340,0
1540168017.670,215.820,23.438,25.391,16.602,-23.926,0
1540168017.674,218.262,25.391,23.926,17.090,24.902,0
1540168017.678,215.820,26.855,26.855,18.066,33.203,0
1540168017.682,220.215,23.926,28.320,20.996,55.176,0
1540168017.686,230.469,21.973,27.832,25.391,-13.672,0
1540168017.690,232.910,22.949,26.855,22.949,-72.266,0
1540168017.694,234.863,24.414,26.855,29.785,-46.875,0
1540168017.698,234.863,23.438,30.273,37.109,2.441,0
1540168017.702,225.098,22.949,31.738,25.879,1.953,0
1540168017.705,228.027,21.973,29.785,22.461,17.090,0
1540168017.709,238.281,20.508,29.297,24.902,14.160,0
1540168017.713,245.117,22.461,31.738,26.855,-6.348,0
1540168017.717,251.465,20.996,30.762,26.855,0.000,0
1540168017.721,261.719,22.949,30.273,23.926,41.504,0
1540168017.725,264.648,21.973,27.344,28.320,46.875,0
1540168017.729,266.602,22.949,25.879,27.832,24.414,0
1540168017.733,273.438,31.738,26.367,20.996,7.324,0
1540168017.737,280.762,32.227,24.414,20.508,-0.977,0
1540168017.741,281.738,30.273,23.926,26.855,19.043,0
1540168017.745,282.715,29.297,24.414,25.391,-10.254,0
1540168017.748,287.598,25.391,27.344,20.508,-2.441,0
1540168017.752,284.668,22.461,30.762,24.902,6.348,0
1540168017.756,281.250,23.438,29.297,25.391,35.156,0
1540168017.760,278.809,22.461,26.855,28.320,28.809,0
1540168017.764,276.367,21.484,24.902,29.785,55.664,0
1540168017.768,280.762,21.484,24.902,24.414,63.965,0
1540168017.772,279.297,20.996,26.855,22.949,9.766,0
1540168017.776,270.508,20.020,25.391,20.020,76.172,0
1540168017.780,267.578,22.949,24.414,26.855,78.125,0
1540168017.784,263.184,25.879,25.391,21.484,31.738,0
1540168017.788,271.973,25.391,28.320,7.812,39.062,0
1540168017.791,286.133,26.367,26.367,13.672,0.488,0
1540168017.795,272.949,24.414,21.484,14.648,-4.395,0
1540168017.799,259.766,23.438,19.043,16.113,10.742,0
1540168017.803,263.184,24.902,22.949,19.531,24.414,0
1540168017.807,250.000,20.020,30.762,23.438,85.449,0
1540168017.811,230.957,17.090,31.738,32.715,103.027,0
1540168017.815,214.355,16.602,32.715,30.762,43.945,0
1540168017.819,209.961,20.508,38.086,22.949,-10.254,0
1540168017.823,208.984,24.414,37.109,21.973,-18.555,0
1540168017.827,210.449,25.879,33.203,30.273,3.906,0
1540168017.830,219.727,28.809,31.250,28.809,2.441,0
1540168017.834,228.027,25.391,30.762,21.484,-11.230,0
1540168017.838,235.352,23.926,31.250,23.438,13.672,0
1540168017.842,233.398,25.391,28.809,25.391,18.066,0
1540168017.846,229.492,23.926,30.762,29.297,39.062,0
1540168017.850,228.516,25.879,33.203,27.832,36.133,0
1540168017.854,226.074,26.367,33.691,22.949,61.035,0
1540168017.858,223.633,23.438,31.738,32.227,65.430,0
1540168017.862,230.469,23.926,27.832,37.109,28.809,0
1540168017.866,231.445,25.879,27.832,22.949,55.664,0
1540168017.870,225.098,27.344,30.273,14.648,54.199,0
1540168017.873,223.145,20.996,34.668,21.484,16.602,0
1540168017.877,220.215,17.090,35.156,23.438,9.766,0
1540168017.881,216.309,19.531,32.227,25.391,60.059,0
1540168017.885,212.891,19.531,28.809,22.949,86.914,0
1540168017.889,210.938,17.090,27.832,20.996,55.176,0
1540168017.893,202.148,21.973,28.320,22.949,72.266,0
1540168017.897,187.012,25.879,27.832,21.484,78.125,0
1540168017.901,174.316,22.949,27.344,18.555,51.758,0
1540168017.905,168.945,24.414,30.273,15.625,39.551,0
1540168017.909,164.062,25.391,25.879,21.973,71.777,0
1540168017.913,157.227,24.414,23.438,20.996,65.430,0
1540168017.916,144.043,25.879,31.738,19.531,39.551,0
1540168017.920,143.555,26.367,36.133,22.949,44.922,0
1540168017.924,140.625,25.391,34.180,16.602,32.715,0
1540168017.928,139.160,25.391,33.203,16.113,15.137,0
1540168017.932,159.180,25.879,33.691,21.484,-3.418,0
1540168017.936,175.781,27.344,30.273,20.508,-1.953,0
1540168017.940,176.758,27.344,29.785,20.020,13.184,0
1540168017.944,173.340,26.367,28.809,18.066,45.898,0
1540168017.948,177.246,26.367,27.344,13.672,33.203,0
1540168017.952,183.105,19.531,26.367,9.766,-80.566,0
1540168017.955,186.523,16.113,27.344,9.766,-49.805,0
1540168017.959,188.477,21.973,29.297,12.207,14.160,0
1540168017.963,190.430,21.973,26.367,12.695,26.367,0
1540168017.967,192.383,22.949,23.926,9.277,53.711,0
1540168017.971,198.730,24.902,28.320,5.371,16.602,0
1540168017.975,203.613,24.902,30.273,8.789,2.441,0
1540168017.979,206.055,24.414,30.273,13.184,11.230,0
1540168017.983,209.961,28.320,30.273,15.137,35.645,0
1540168017.987,210.938,29.297,26.367,10.742,19.043,0
1540168017.991,212.402,29.785,24.902,9.277,29.297,0
1540168017.995,213.379,28.809,26.855,14.648,129.883,0
1540168017.998,218.750,28.809,30.273,20.996,127.441,0
1540168018.002,217.285,29.297,27.832,20.508,34.180,0
1540168018.006,209.473,27.344,27.344,18.555,41.016,0
1540168018.010,209.961,29.785,31.250,23.926,15.137,0
1540168018.014,208.496,28.320,26.855,23.438,-0.977,0
1540168018.018,207.031,23.438,22.949,18.066,42.969,0
1540168018.022,206.543,24.902,26.367,20.020,12.695,0
1540168018.026,207.031,25.391,27.344,27.832,-12.695,0
1540168018.030,209.473,20.508,25.879,31.250,36.133,0
1540168018.034,214.355,21.973,27.344,32.227,38.574,0
1540168018.038,221.191,25.879,29.297,33.691,20.508,0
1540168018.041,218.750,23.438,29.785,33.691,26.367,0
1540168018.045,216.309,21.973,26.855,31.738,56.641,0
1540168018.049,213.867,23.926,23.438,27.832,27.832,0
1540168018.053,213.379,25.879,23.926,22.949,21.484,0
1540168018.057,218.750,23.438,24.414,24.414,66.406,0
1540168018.061,216.797,24.414,25.391,32.227,43.457,0
1540168018.065,203.613,28.809,28.809,37.598,-33.203,0
1540168018.069,196.777,26.855,30.273,28.809,-45.410,0
1540168018.073,196.289,23.438,27.832,23.438,-23.926,0
1540168018.077,195.312,22.949,25.391,26.367,14.648,0
1540168018.080,192.871,24.902,24.902,26.367,82.520,0
1540168018.084,199.219,26.855,28.320,28.809,98.145,0
1540168018.088,204.102,27.344,26.855,28.320,42.480,0
1540168018.092,197.754,28.320,21.484,29.297,33.203,0
1540168018.096,195.312,28.320,22.461,29.785,8.789,0
1540168018.100,196.777,27.832,24.902,26.855,-20.996,0
1540168018.104,204.102,30.762,23.926,25.879,23.438,1
1540168018.108,207.520,30.762,20.020,27.344,69.336,0
1540168018.112,203.613,28.809,23.926,33.691,69.824,0
1540168018.116,205.566,29.297,30.273,34.668,77.637,0
1540168018.120,208.984,27.832,28.809,27.344,82.031,0
1540168018.123,208.984,23.926,26.855,24.902,46.875,0
1540168018.127,206.543,22.949,22.949,26.855,1.465,0
1540168018.131,218.750,25.391,24.414,28.320,7.812,0
1540168018.135,234.863,26.367,27.344,27.344,-14.648,0
1540168018.139,238.770,29.785,27.344,25.879,50.781,0
1540168018.143,247.559,30.273,27.832,25.879,16.602,0
1540168018.147,255.371,25.879,26.855,27.344,-8.789,0
1540168018.151,267.090,26.367,23.926,25.879,57.129,0
1540168018.155,278.809,28.809,21.484,21.973,24.902,0
1540168018.159,268.066,25.879,21.484,22.949,78.125,0
1540168018.163,262.695,25.879,21.973,23.438,46.387,0
1540168018.166,203.125,24.902,23.926,28.320,4.395,0
1540168018.170,157.227,19.531,27.832,35.645,15.137,0
1540168018.174,167.480,20.996,26.855,37.109,40.527,0
1540168018.178,168.457,24.902,23.926,31.250,85.449,0
1540168018.182,168.457,27.832,20.996,29.785,49.316,0
1540168018.186,164.551,25.879,20.508,27.832,20.996,0
1540168018.190,161.133,24.414,24.414,24.414,28.320,0
1540168018.194,163.574,25.391,24.414,26.855,-11.230,0
1540168018.198,166.992,26.367,21.973,25.879,15.137,0
1540168018.202,172.363,26.855,25.391,25.391,41.016,0
1540168018.205,175.293,23.926,26.855,27.832,-3.418,0
1540168018.209,177.246,21.484,26.855,26.855,10.254,0
1540168018.213,187.988,20.020,31.738,29.785,-1.953,0
1540168018.217,198.242,21.484,30.762,29.297,7.812,0
1540168018.221,196.777,23.926,30.273,23.438,37.109,0
1540168018.225,184.082,24.902,32.715,23.438,47.363,0
1540168018.229,186.035,27.344,34.180,30.273,36.133,0
1540168018.233,191.895,25.879,32.227,32.227,0.977,0
1540168018.237,192.871,21.973,23.926,27.344,2.930,0
1540168018.241,200.684,26.855,25.391,32.715,-1.953,0
1540168018.245,208.496,33.203,32.715,40.527,17.090,0
1540168018.248,210.449,28.809,30.273,39.551,5.859,0
1540168018.252,216.797,21.973,27.832,36.621,-32.227,0
1540168018.256,213.379,21.973,35.645,39.551,-18.066,0
1540168018.260,201.172,24.414,39.062,39.062,-6.836,0
1540168018.264,202.637,26.367,34.180,37.598,0.000,0
1540168018.268,206.055,25.879,31.738,37.598,19.043,0
1540168018.272,208.008,25.879,31.738,34.668,0.000,0
1540168018.276,209.473,25.391,27.344,35.156,-26.367,0
1540168018.280,207.031,26.855,24.902,32.227,-11.719,0
1540168018.284,207.520,26.855,27.344,24.902,22.949,0
1540168018.288,204.590,23.926,28.809,18.066,26.367,0
1540168018.291,194.336,27.832,28.809,21.973,35.645,0
1540168018.295,192.871,28.809,29.297,29.785,56.641,0
1540168018.299,195.801,26.855,28.320,26.367,30.273,0
1540168018.303,203.613,24.414,27.344,27.344,9.277,0
1540168018.307,204.102,25.391,30.273,23.438,13.184,0
1540168018.311,200.684,29.785,28.320,19.043,19.043,0
1540168018.315,202.637,26.855,24.902,25.391,14.160,0
1540168018.319,194.824,25.879,27.832,18.555,20.996,0
1540168018.323,182.129,28.809,26.367,12.207,71.777,0
1540168018.327,179.688,29.785,26.855,18.066,84.473,0
1540168018.330,186.035,27.832,34.180,22.461,81.543,0
1540168018.334,186.035,23.926,34.668,20.020,59.570,0
1540168018.338,183.105,23.926,33.691,19.531,22.461,0
1540168018.342,182.129,27.344,35.645,27.344,-1.465,0
1540168018.346,180.176,29.785,37.109,34.180,-65.430,0
1540168018.350,172.363,24.902,35.645,26.855,-7.324,0
1540168018.354,178.223,23.926,31.250,20.996,35.645,0
1540168018.358,184.570,30.273,26.855,27.344,35.645,0
1540168018.362,178.711,32.715,24.414,29.785,59.570,0
1540168018.366,183.105,31.250,24.902,33.691,37.109,0
1540168018.370,189.453,32.715,31.250,34.180,20.996,0
1540168018.373,188.477,35.156,33.691,32.227,-6.348,0
1540168018.377,186.523,35.645,30.762,32.227,6.836,0
1540168018.381,165.527,34.180,25.879,16.113,54.199,0
1540168018.385,141.602,26.367,16.113,-7.324,88.379,0
1540168018.389,148.438,22.949,29.297,0.000,26.367,0
1540168018.393,148.438,39.062,39.062,3.906,6.836,0
1540168018.397,128.906,50.781,26.367,-15.137,-1.465,0
1540168018.401,111.816,51.270,20.508,-25.879,-4.395,0
1540168018.405,105.469,53.223,23.438,-36.133,15.137,0
1540168018.409,65.918,57.129,4.883,-72.754,18.555,0
1540168018.413,62.500,61.523,0.977,-74.707,38.574,0
1540168018.416,99.609,60.547,27.344,-42.969,29.297,0
1540168018.420,83.984,71.777,20.996,-61.035,58.594,0
1540168018.424,62.012,76.660,15.625,-82.520,87.891,0
1540168018.428,54.199,83.008,16.602,-81.543,79.590,0
1540168018.432,59.570,91.797,13.184,-84.473,46.387,0
1540168018.436,63.965,88.867,13.672,-91.797,33.203,0
1540168018.440,64.453,86.914,15.625,-85.938,76.660,0
1540168018.444,64.941,87.891,12.207,-76.660,82.031,0
1540168018.448,74.219,85.449,13.184,-66.406,41.016,0
1540168018.452,79.590,77.637,15.625,-65.918,12.207,0
1540168018.455,88.867,71.777,12.695,-58.105,-25.879,0
1540168018.459,92.773,66.895,13.672,-46.387,-20.020,0
1540168018.463,102.051,64.941,17.578,-41.016,12.695,0
1540168018.467,111.816,58.594,19.531,-41.992,35.156,0
1540168018.471,118.652,55.664,20.508,-27.832,75.195,0
1540168018.475,127.441,52.734,18.066,-11.719,87.402,0
1540168018.479,134.766,44.922,17.578,-13.672,59.570,0
1540168018.483,142.090,41.504,19.531,-9.766,32.227,0
1540168018.487,149.902,38.574,16.113,2.441,36.133,0
1540168018.491,156.250,37.109,10.742,3.418,33.691,0
1540168018.495,165.527,37.598,17.578,0.977,38.086,0
1540168018.498,173.828,33.691,24.414,9.766,15.625,0
1540168018.502,185.547,32.715,21.973,13.184,-13.672,0
1540168018.506,197.266,31.738,20.508,15.137,28.320,0
1540168018.510,183.105,29.297,18.066,13.672,74.707,0
1540168018.514,170.898,31.250,19.531,22.461,101.562,0
1540168018.518,179.199,31.738,25.391,32.715,69.824,0
1540168018.522,182.129,30.273,25.391,34.180,30.273,0
1540168018.526,182.129,27.344,21.973,37.109,18.066,0
1540168018.530,177.734,26.855,21.484,38.574,19.531,0
1540168018.534,169.434,23.926,24.414,43.457,-14.160,0
1540168018.538,163.574,20.508,22.461,43.457,-16.602,0
1540168018.541,157.227,20.996,20.996,46.875,1.953,0
1540168018.545,151.367,17.090,26.367,52.246,63.477,0
1540168018.549,153.320,15.625,27.344,47.852,51.270,0
1540168018.553,166.992,13.672,25.879,48.340,43.945,0
1540168018.557,175.293,14.160,28.809,52.246,119.141,0
1540168018.561,174.316,19.043,27.832,53.223,52.246,0
1540168018.565,169.922,18.555,23.926,53.223,-21.484,0
1540168018.569,165.527,17.578,27.832,54.199,-6.348,0
1540168018.573,158.203,19.531,30.762,56.641,26.367,0
1540168018.577,152.832,20.996,29.297,60.547,9.766,0
1540168018.580,150.391,20.996,29.297,60.059,-22.461,0
1540168018.584,146.484,19.531,31.250,50.293,11.230,0
1540168018.588,151.367,20.020,33.203,50.781,14.648,0
1540168018.592,150.879,19.531,32.227,59.082,-24.902,0
1540168018.596,150.391,17.578,30.762,61.035,-8.789,0
1540168018.600,157.227,20.996,29.297,59.082,-10.254,0
1540168018.604,160.645,21.484,27.832,56.641,-8.789,0
1540168018.608,158.203,17.578,33.203,57.129,25.879,0
1540168018.612,161.621,17.090,34.668,63.477,26.367,0
1540168018.616,164.062,13.184,33.691,60.547,30.762,0
1540168018.620,169.434,10.254,32.715,51.270,41.992,0
1540168018.623,169.922,12.695,33.203,48.828,58.105,0
1540168018.627,164.551,15.137,34.180,57.129,55.664,0
1540168018.631,164.062,14.648,32.715,57.617,26.855,0
1540168018.635,171.875,13.672,33.203,51.270,50.781,0
1540168018.639,172.363,15.137,35.156,46.875,41.504,0
1540168018.643,170.898,13.184,35.645,41.992,0.977,0
1540168018.647,182.129,11.230,32.715,41.992,9.766,0
1540168018.651,194.336,13.672,27.344,38.086,48.828,0
1540168018.655,205.566,17.090,23.438,23.926,14.160,0
1540168018.659,198.730,16.113,25.391,29.297,-8.789,0
1540168018.663,184.082,12.207,29.297,34.180,45.410,0
1540168018.666,177.246,12.207,32.227,33.203,60.059,0
1540168018.670,173.828,13.672,32.227,38.574,37.598,0
1540168018.674,167.480,10.254,30.273,35.645,-24.414,0
1540168018.678,168.457,12.207,25.879,37.598,20.508,0
1540168018.682,157.227,16.113,24.902,43.457,87.402,0
1540168018.686,140.137,15.625,28.809,34.668,34.180,0
1540168018.690,137.207,13.672,31.250,29.785,2.441,0
1540168018.694,143.066,13.672,33.203,39.062,20.508,0
1540168018.698,148.926,17.090,32.715,39.551,0.000,0
1540168018.702,146.484,16.602,31.738,31.250,56.641,1
1540168018.705,151.855,13.184,32.227,36.133,83.496,0
1540168018.709,158.203,15.137,32.227,46.387,24.902,0
1540168018.713,160.156,15.137,33.203,43.945,-5.371,0
1540168018.717,160.156,14.160,34.180,42.480,-63.477,0
1540168018.721,166.016,17.090,32.715,40.527,4.395,0
1540168018.725,166.016,16.602,30.762,32.227,50.293,0
1540168018.729,164.551,17.090,30.762,33.203,10.742,0
1540168018.733,169.922,21.484,34.668,44.434,41.992,0
1540168018.737,178.223,22.949,38.086,45.898,96.191,0
1540168018.741,180.664,23.438,39.551,46.875,67.871,0
1540168018.745,179.688,24.414,39.062,52.734,10.742,0
1540168018.748,176.270,22.949,38.574,52.734,-32.227,0
1540168018.752,171.875,21.484,37.598,51.758,-30.273,0
1540168018.756,168.945,20.996,37.598,49.805,44.434,0
1540168018.760,163.574,15.137,36.133,41.016,71.777,0
1540168018.764,163.086,12.207,31.250,34.668,43.945,0
1540168018.768,167.969,17.578,30.762,30.762,56.152,0
1540168018.772,164.551,21.973,31.250,31.738,60.547,0
1540168018.776,149.414,21.484,30.762,38.086,-41.504,0
1540168018.780,138.184,20.020,30.273,41.016,-27.344,0
1540168018.784,134.766,20.020,25.391,38.086,71.777,0
1540168018.788,136.719,20.996,23.438,31.250,31.738,0
1540168018.791,125.977,19.043,24.414,34.668,-10.742,0
1540168018.795,119.141,18.066,27.344,40.527,-25.879,0
1540168018.799,116.211,19.531,26.855,31.738,6.836,0
1540168018.803,108.398,20.508,23.438,20.996,22.461,0
1540168018.807,104.004,21.484,24.902,25.391,12.695,0
1540168018.811,106.445,23.926,30.273,29.785,19.531,0
1540168018.815,111.816,25.879,30.762,29.297,3.906,0
1540168018.819,110.840,26.367,29.297,28.809,69.824,0
1540168018.823,112.305,25.879,30.273,30.273,86.426,0
1540168018.827,111.816,24.414,31.738,33.691,31.250,0
1540168018.830,104.492,23.438,30.273,26.855,18.555,0
1540168018.834,104.004,20.508,30.762,23.438,-6.348,0
1540168018.838,106.934,20.020,29.785,22.949,44.922,0
1540168018.842,101.562,25.879,25.391,19.531,59.082,0
1540168018.846,107.422,25.391,28.320,21.973,13.672,0
1540168018.850,106.934,21.973,29.297,21.484,34.668,0
1540168018.854,99.121,20.508,29.297,22.949,25.879,0
1540168018.858,93.262,20.020,32.715,33.691,38.086,0
1540168018.862,84.961,20.020,30.273,36.133,34.668,0
1540168018.866,76.660,20.508,27.344,31.250,6.836,0
1540168018.870,67.871,20.996,26.855,23.438,6.348,0
1540168018.873,66.406,22.461,26.367,20.020,12.695,0
1540168018.877,67.383,23.438,29.297,26.367,47.852,0
1540168018.881,68.359,24.414,28.320,26.367,74.707,0
1540168018.885,71.289,26.855,26.367,25.391,64.453,0
1540168018.889,69.824,25.879,25.879,24.414,36.621,0
1540168018.893,66.895,26.855,25.391,24.902,60.059,0
1540168018.897,69.336,24.902,29.297,32.715,62.988,0
1540168018.901,63.477,20.996,33.691,32.227,42.480,0
1540168018.905,62.012,18.555,35.156,20.508,33.203,0
1540168018.909,62.500,20.996,34.180,21.484,8.789,0
1540168018.913,59.570,23.438,30.762,24.902,-8.301,0
1540168018.916,60.547,22.949,28.809,27.344,41.992,0
1540168018.920,64.941,25.391,29.785,26.855,6.348,0
1540168018.924,69.336,25.879,29.785,25.391,9.277,0
1540168018.928,74.707,28.320,31.738,31.250,8.789,0
1540168018.932,76.172,27.832,32.715,30.762,41.504,0
1540168018.936,78.125,25.391,31.250,23.926,79.102,0
1540168018.940,77.637,21.973,33.203,20.996,29.785,0
1540168018.944,79.102,20.508,36.133,29.297,-29.297,0
1540168018.948,82.031,24.902,34.668,26.367,-29.297,0
1540168018.952,83.984,26.367,33.203,22.461,20.508,0
1540168018.955,88.379,26.855,35.645,30.273,62.988,0
1540168018.959,92.285,24.902,35.156,32.715,68.848,0
1540168018.963,92.285,23.926,29.297,32.715,20.020,0
1540168018.967,89.844,25.391,28.809,25.879,32.715,0
1540168018.971,89.844,22.461,31.250,23.438,26.367,0
1540168018.975,92.285,20.996,31.250,26.367,-16.602,0
1540168018.979,93.750,20.996,32.227,20.508,-44.922,0
1540168018.983,89.355,18.555,34.180,24.902,-35.645,0
1540168018.987,92.285,18.555,33.691,25.391,28.320,0
1540168018.991,94.727,18.555,29.297,19.043,54.688,0
1540168018.995,90.820,19.531,25.391,14.648,3.906,0
1540168018.998,86.914,21.973,26.367,17.090,40.039,0
1540168019.002,92.773,22.461,32.227,23.926,56.641,0
1540168019.006,99.121,22.461,32.227,21.484,12.207,0
1540168019.010,93.750,19.531,29.785,22.949,24.902,0
1540168019.014,95.215,21.484,31.738,30.273,3.906,0
1540168019.018,99.609,22.949,29.785,29.785,-45.898,0
1540168019.022,97.168,21.484,28.320,20.020,18.066,0
1540168019.026,91.797,21.973,29.297,17.090,79.590,0
1540168019.030,88.867,22.461,26.855,22.461,73.242,0
1540168019.034,91.797,23.926,27.344,21.484,21.973,0
1540168019.038,95.215,25.879,25.391,17.090,23.438,0
1540168019.041,89.355,27.832,24.414,19.531,15.625,0
1540168019.045,83.008,26.367,30.762,20.508,-36.621,0
1540168019.049,72.754,20.996,28.809,11.719,-36.621,0
1540168019.053,64.453,19.043,23.926,13.672,-14.160,0
1540168019.057,67.383,20.020,29.785,25.879,55.664,0
1540168019.061,70.801,23.438,30.273,23.926,26.855,0
1540168019.065,64.941,25.391,26.855,17.578,21.484,0
1540168019.069,64.453,22.461,30.273,17.090,55.664,0
1540168019.073,64.941,22.461,29.785,18.066,53.711,0
1540168019.077,59.570,23.438,30.762,23.926,19.531,0
1540168019.080,58.105,24.902,33.691,32.715,2.930,0
1540168019.084,64.941,25.879,30.762,32.715,33.203,0
1540168019.088,65.918,24.902,31.250,25.391,65.430,0
1540168019.092,59.570,30.762,31.738,26.855,52.246,0
1540168019.096,60.547,33.203,31.738,29.785,49.316,0
1540168019.100,63.965,29.785,31.250,28.320,59.570,0
1540168019.104,60.547,28.809,28.809,24.414,38.574,0
1540168019.108,60.547,26.855,33.203,30.273,15.625,0
1540168019.112,60.547,24.902,34.180,39.551,55.176,0
1540168019.116,53.223,26.367,31.250,36.133,51.270,0
1540168019.120,48.340,29.297,30.273,29.297,-7.324,0
1540168019.123,51.758,28.809,33.691,36.621,0.000,0
1540168019.127,53.711,27.832,32.227,42.480,33.203,0
1540168019.131,50.781,29.297,25.879,36.133,-3.418,0
1540168019.135,61.035,30.273,28.809,38.574,18.066,0
1540168019.139,62.500,26.855,32.715,42.969,60.059,0
1540168019.143,58.105,24.902,32.715,44.434,-7.324,0
1540168019.147,66.895,27.832,35.156,46.387,41.016,0
1540168019.151,75.195,30.762,33.203,43.945,62.988,0
1540168019.155,72.266,32.227,29.785,36.133,38.086,0
1540168019.159,63.477,33.691,29.785,39.062,9.766,0
1540168019.163,69.336,31.738,29.785,41.504,-15.625,0
1540168019.166,70.801,30.273,27.832,35.156,-5.859,0
1540168019.170,67.383,30.762,25.391,33.203,1.465,0
1540168019.174,66.895,29.297,24.902,31.738,64.453,0
1540168019.178,58.594,24.902,27.344,29.785,58.105,0
1540168019.182,50.781,25.879,27.344,29.785,20.996,0
1540168019.186,54.199,27.832,27.344,26.367,47.363,0
1540168019.190,54.199,25.879,29.785,24.414,40.039,0
1540168019.194,49.805,25.879,28.320,30.273,-0.977,0
1540168019.198,48.340,27.344,25.391,28.809,40.039,0
1540168019.202,44.434,28.320,24.414,20.020,33.203,0
1540168019.205,47.363,29.785,24.902,20.508,-31.250,0
1540168019.209,46.387,32.227,24.414,30.762,9.277,0
1540168019.213,39.062,30.762,27.832,38.086,55.664,0
1540168019.217,42.969,26.855,27.344,29.785,31.250,0
1540168019.221,50.293,27.344,27.832,19.531,25.391,0
1540168019.225,43.457,27.832,31.250,26.855,29.785,0
1540168019.229,45.898,24.902,30.273,29.785,48.340,0
1540168019.233,47.852,23.926,31.250,21.973,78.125,0
1540168019.237,39.551,23.438,29.785,20.020,55.664,0
1540168019.241,38.574,21.484,25.879,25.391,-7.324,0
1540168019.245,45.410,23.926,28.320,26.855,19.531,0
1540168019.248,43.457,20.020,35.156,18.555,57.617,0
1540168019.252,35.645,15.625,35.156,18.066,15.625,0
1540168019.256,25.879,15.137,32.715,24.414,5.859,0
1540168019.260,41.016,15.625,31.738,25.391,-7.812,1
1540168019.264,47.852,19.531,30.273,23.926,-6.836,0
1540168019.268,33.203,17.090,33.203,22.949,23.926,0
1540168019.272,48.828,15.625,35.645,17.090,-12.207,0
1540168019.276,49.805,18.066,35.156,16.113,-48.828,0
1540168019.280,45.898,18.555,35.645,22.949,-42.480,0
1540168019.284,46.387,18.555,31.250,20.996,15.625,0
1540168019.288,39.062,20.020,32.227,18.066,47.852,0
1540168019.291,41.016,22.461,33.203,21.484,34.668,0
1540168019.295,51.758,21.484,29.785,27.832,20.996,0
1540168019.299,66.406,22.949,28.809,28.809,-12.207,0
1540168019.303,56.152,24.414,27.344,24.414,0.977,0
1540168019.307,41.992,23.926,26.855,25.879,-36.621,0
1540168019.311,50.781,24.902,28.320,24.414,-30.762,0
1540168019.315,55.664,23.926,28.320,22.949,-5.371,0
1540168019.319,49.316,20.996,27.832,23.926,7.812,0
1540168019.323,54.688,20.508,32.715,23.438,29.297,0
1540168019.327,60.059,22.461,31.250,33.691,50.781,0
1540168019.330,58.594,23.438,26.855,35.645,83.496,0
1540168019.334,68.359,26.855,24.902,20.020,83.008,0
1540168019.338,76.172,28.320,24.414,13.672,95.215,0
1540168019.342,72.754,24.414,24.902,20.996,99.609,0
1540168019.346,75.195,23.438,23.438,25.391,75.684,0
1540168019.350,79.590,23.438,26.855,27.344,59.082,0
1540168019.354,88.379,23.438,30.273,24.414,34.668,0
1540168019.358,86.914,22.949,28.809,23.926,20.996,0
1540168019.362,84.473,24.414,32.715,31.738,41.016,0
1540168019.366,83.496,23.926,34.668,30.762,26.367,0
1540168019.370,89.844,25.391,34.668,25.391,-11.230,0
1540168019.373,85.449,27.832,36.133,27.344,25.879,0
1540168019.377,67.383,24.414,35.156,32.227,52.734,0
1540168019.381,55.664,25.391,34.668,30.273,27.832,0
1540168019.385,43.945,26.367,34.180,26.367,18.066,0
1540168019.389,39.551,26.855,31.738,23.926,21.484,0
1540168019.393,44.922,27.344,31.250,25.879,48.828,0
1540168019.397,57.617,26.855,33.203,30.273,25.391,0
1540168019.401,52.734,27.344,32.227,26.367,9.766,0
1540168019.405,45.898,31.738,30.273,23.438,26.855,0
1540168019.409,30.273,30.762,27.832,25.391,18.555,0
1540168019.413,7.324,27.832,25.391,25.391,59.570,0
1540168019.416,-5.859,28.809,27.832,31.250,66.406,0
1540168019.420,-10.742,27.832,34.668,30.762,34.180,0
1540168019.424,-9.766,30.762,38.574,29.297,70.801,0
1540168019.428,-9.766,29.297,38.574,37.109,57.129,0
1540168019.432,-6.348,25.879,38.574,43.457,11.230,0
1540168019.436,3.418,28.320,36.133,38.574,41.016,0
1540168019.440,15.137,29.785,32.715,32.227,57.129,0
1540168019.444,27.832,26.855,33.691,35.645,42.480,0
1540168019.448,31.250,26.855,33.691,34.180,28.809,0
1540168019.452,42.969,28.809,30.762,29.785,59.082,0
1540168019.455,47.363,31.738,31.738,30.762,43.945,0
1540168019.459,35.645,31.250,35.645,31.250,-53.711,0
1540168019.463,45.410,27.832,33.691,30.762,-0.977,0
1540168019.467,54.199,27.344,32.715,28.320,55.176,0
1540168019.471,49.805,24.902,32.227,20.996,5.371,0
1540168019.475,46.387,23.926,31.250,21.484,27.344,0
1540168019.479,41.016,23.438,31.738,30.273,73.730,0
1540168019.483,38.086,24.414,33.203,27.832,61.523,0
1540168019.487,37.109,26.855,33.203,21.973,18.555,0
1540168019.491,41.016,26.855,29.785,21.484,8.301,0
1540168019.495,44.434,25.879,28.320,26.367,32.715,0
1540168019.498,50.781,26.367,30.762,27.344,38.574,0
1540168019.502,56.152,25.879,31.738,20.508,9.766,0
1540168019.506,51.758,24.414,29.785,15.625,-10.742,0
1540168019.510,57.129,29.297,27.344,13.184,-3.418,0
1540168019.514,67.871,32.227,28.320,9.766,21.484,0
1540168019.518,76.172,31.738,29.785,6.836,47.852,0
1540168019.522,85.938,32.715,28.320,4.395,8.301,0
1540168019.526,89.355,35.156,27.344,9.277,-1.953,0
1540168019.530,86.914,36.133,27.832,14.648,6.836,0
1540168019.534,84.473,33.203,28.809,18.066,-18.066,0
1540168019.538,80.566,31.738,31.250,24.414,-11.230,0
1540168019.541,77.148,34.668,33.691,30.762,3.418,0
1540168019.545,72.754,34.180,31.738,35.645,18.555,0
1540168019.549,73.730,28.809,27.344,33.203,41.992,0
1540168019.553,81.055,27.344,30.273,27.344,14.160,0
1540168019.557,73.242,29.297,33.203,30.762,13.184,0
1540168019.561,60.547,26.855,33.203,29.785,57.617,0
1540168019.565,63.965,26.855,33.691,24.414,72.754,0
1540168019.569,65.918,30.273,33.203,28.320,84.473,0
1540168019.573,58.105,32.715,32.227,30.762,38.086,0
1540168019.577,60.059,34.180,33.691,29.785,19.531,0
1540168019.580,62.012,31.738,31.738,27.832,100.586,0
1540168019.584,58.594,31.738,27.344,32.715,65.430,0
1540168019.588,60.547,32.715,26.855,29.785,-50.781,0
1540168019.592,53.711,31.250,26.855,26.367,-4.395,0
1540168019.596,49.316,32.715,25.391,29.785,42.969,0
1540168019.600,52.734,31.250,27.344,31.738,-31.738,0
1540168019.604,55.176,28.320,30.762,30.762,14.648,0
1540168019.608,56.641,27.344,32.715,25.879,41.992,0
1540168019.612,56.641,27.344,34.668,29.785,43.457,0
1540168019.616,58.105,28.320,33.691,27.344,41.016,0
1540168019.620,62.988,25.391,29.785,20.996,7.324,0
1540168019.623,58.594,22.461,30.762,28.809,18.555,0
1540168019.627,55.664,20.508,33.203,31.250,-8.789,0
1540168019.631,66.895,20.020,29.785,27.832,-64.941,0
1540168019.635,80.078,20.996,29.785,25.391,-52.734,0
1540168019.639,81.543,20.508,31.738,20.996,73.730,0
1540168019.643,80.078,23.438,31.738,26.367,83.496,0
1540168019.647,86.426,21.973,32.715,30.273,12.695,0
1540168019.651,87.402,20.508,33.691,24.414,8.301,0
1540168019.655,92.773,22.461,33.691,25.879,9.766,0
1540168019.659,85.938,24.414,33.203,32.715,33.203,0
1540168019.663,81.543,23.926,34.180,29.785,35.645,0
1540168019.666,85.449,21.973,31.250,23.438,-38.574,0
1540168019.670,83.008,20.508,28.809,18.555,-25.879,0
1540168019.674,75.195,20.508,27.344,18.066,62.500,0
1540168019.678,80.566,22.949,24.902,23.438,35.156,0
1540168019.682,87.402,21.484,26.855,25.391,-12.695,0
1540168019.686,85.938,22.949,27.832,24.902,54.688,0
1540168019.690,84.473,23.438,26.855,24.414,64.453,0
1540168019.694,83.008,21.484,27.832,17.090,37.598,0
1540168019.698,83.496,23.438,26.855,17.578,41.992,0
1540168019.702,82.520,25.391,25.879,18.555,12.695,0
1540168019.705,83.496,28.320,27.344,14.160,-2.441,0
1540168019.709,78.613,27.832,26.367,17.090,41.016,0
1540168019.713,77.148,26.367,24.414,16.602,46.875,0
1540168019.717,86.914,24.414,25.391,15.625,15.625,0
1540168019.721,98.633,23.438,26.367,19.531,31.738,0
1540168019.725,94.727,24.414,25.879,22.949,39.551,0
1540168019.729,91.797,24.414,25.391,22.949,67.383,0
1540168019.733,90.332,23.438,26.367,24.902,94.238,0
1540168019.737,85.938,21.973,23.926,21.484,69.824,0
1540168019.741,92.285,21.484,21.973,13.184,13.184,0
1540168019.745,94.727,23.926,24.414,20.508,-60.059,0
1540168019.748,86.914,24.414,25.879,21.973,15.625,0
1540168019.752,87.891,25.391,25.391,18.066,102.539,0
1540168019.756,89.844,26.367,25.391,20.020,26.855,0
1540168019.760,89.844,25.391,23.926,20.020,44.434,0
1540168019.764,94.238,25.879,23.438,22.949,77.637,0
1540168019.768,96.680,25.391,23.926,21.973,91.309,0
1540168019.772,89.355,24.414,26.367,21.973,22.949,0
1540168019.776,87.402,24.414,26.367,23.438,14.648,0
1540168019.780,82.031,23.926,25.391,24.414,30.273,0
1540168019.784,66.895,21.484,26.855,24.414,-36.133,0
1540168019.788,64.453,21.484,30.273,19.043,56.152,0
1540168019.791,61.035,22.461,27.832,20.508,9.766,0
1540168019.795,57.617,22.461,26.367,25.391,-29.785,0
1540168019.799,61.035,22.461,26.855,25.879,71.289,0
1540168019.803,67.871,20.996,24.902,23.926,79.590,0
1540168019.807,65.918,21.484,24.902,23.438,78.125,0
1540168019.811,61.035,20.508,25.879,29.297,75.195,0
1540168019.815,63.477,25.391,28.809,31.738,23.926,0
1540168019.819,63.965,25.391,30.273,22.949,17.090,0
1540168019.823,62.012,16.602,30.273,15.625,-18.066,0
1540168019.827,56.152,17.578,29.785,20.996,-27.344,0
1540168019.830,60.059,20.508,29.297,27.344,-15.625,0
1540168019.834,63.477,20.508,33.691,26.855,-1.465,0
1540168019.838,65.430,19.531,34.180,22.949,48.828,0
1540168019.842,62.012,18.555,30.762,25.391,49.805,0
1540168019.846,63.477,21.484,23.926,23.926,-9.766,0
1540168019.850,73.242,23.926,21.973,22.949,-46.875,0
1540168019.854,59.570,20.508,28.320,19.043,-55.664,0
1540168019.858,45.410,19.531,28.809,18.066,-31.738,0
1540168019.862,55.664,19.531,27.832,31.250,17.090,0
1540168019.866,63.965,19.531,26.855,30.762,28.809,0
1540168019.870,61.035,22.949,23.926,21.484,54.688,0
1540168019.873,60.547,23.926,22.949,21.973,60.059,0
1540168019.877,65.918,25.391,23.926,26.367,20.996,0
1540168019.881,64.941,24.414,27.832,32.715,53.711,0
1540168019.885,66.406,22.949,30.762,28.809,53.223,0
1540168019.889,70.801,22.461,29.297,24.902,3.906,0
1540168019.893,76.660,25.391,27.344,28.320,25.879,0
1540168019.897,80.566,26.855,25.391,30.762,47.852,0
1540168019.901,75.684,20.508,31.738,25.391,47.363,0
1540168019.905,77.148,20.020,33.203,21.973,23.438,0
1540168019.909,77.637,23.438,24.902,25.391,0.488,0
1540168019.913,78.613,22.461,25.391,26.855,-19.531,0
1540168019.916,82.520,24.902,27.832,31.738,-41.504,0
1540168019.920,80.078,24.902,28.809,29.297,6.348,0
1540168019.924,73.242,23.926,29.297,24.902,54.688,0
1540168019.928,70.801,25.391,30.762,27.832,12.695,0
1540168019.932,75.195,22.461,29.785,27.344,3.418,1
1540168019.936,82.520,22.461,30.273,23.926,4.883,0
1540168019.940,80.078,26.367,32.227,18.555,4.883,0
1540168019.944,76.660,30.762,31.250,20.508,57.129,0
1540168019.948,79.102,28.320,31.250,26.855,49.805,0
1540168019.952,72.754,25.879,31.738,26.367,4.395,0
1540168019.955,70.312,24.414,31.738,23.926,-47.363,0
1540168019.959,74.219,23.438,32.227,27.832,-27.344,0
1540168019.963,73.242,26.855,32.715,30.762,41.016,0
1540168019.967,70.801,26.367,35.645,28.320,24.902,0
1540168019.971,68.359,24.902,35.645,22.949,22.461,0
1540168019.975,65.430,26.367,31.250,21.973,76.172,0
1540168019.979,71.777,24.902,32.715,25.391,80.078,0
1540168019.983,79.102,26.855,34.668,31.738,45.410,0
1540168019.987,81.055,28.320,27.832,30.762,57.617,0
1540168019.991,84.473,26.855,27.344,28.320,32.227,0
1540168019.995,79.102,25.879,30.762,29.785,7.324,0
1540168019.998,74.707,22.949,25.391,27.832,42.969,0
1540168020.002,76.172,20.020,23.926,25.391,35.645,0
1540168020.006,74.219,20.508,23.438,22.461,-10.742,0
1540168020.010,69.824,25.391,24.902,22.949,-1.465,0
1540168020.014,68.359,26.855,29.297,25.879,4.883,0
1540168020.018,70.801,23.926,28.809,23.926,1.953,0
1540168020.022,64.941,21.484,27.832,19.531,-16.113,0
1540168020.026,61.035,23.438,32.227,26.855,65.918,0
1540168020.030,57.617,24.414,33.691,31.250,103.516,0
1540168020.034,54.688,23.438,32.227,26.367,60.059,0
1540168020.038,59.082,23.438,32.715,25.391,100.586,0
1540168020.041,61.523,21.484,32.227,28.809,58.105,0
1540168020.045,69.336,20.020,31.738,31.250,18.066,0
1540168020.049,74.707,19.531,36.133,32.227,30.273,0
1540168020.053,84.961,20.020,34.668,29.785,24.902,0
1540168020.057,89.844,18.555,29.297,30.762,30.273,0
1540168020.061,82.031,17.090,32.715,32.715,5.859,0
1540168020.065,84.473,16.602,36.133,30.273,3.418,0
1540168020.069,91.797,14.160,34.668,25.879,48.828,0
1540168020.073,94.238,17.578,33.203,21.973,51.270,0
1540168020.077,88.867,18.066,35.645,26.855,31.738,0
1540168020.080,84.961,17.090,37.598,30.762,43.457,0
1540168020.084,81.055,20.996,35.645,26.367,21.973,0
1540168020.088,72.266,23.438,33.691,21.973,-38.086,0
1540168020.092,58.105,24.414,34.668,20.508,-2.930,0
1540168020.096,47.363,25.391,34.668,27.344,-6.348,0
1540168020.100,36.133,24.902,37.598,31.250,2.441,0
1540168020.104,33.203,24.902,37.109,26.855,-3.418,0
1540168020.108,30.762,23.926,32.715,27.832,-13.184,0
1540168020.112,14.160,22.461,33.691,32.227,55.176,0
1540168020.116,0.000,24.902,32.227,30.273,49.805,0
1540168020.120,3.418,26.367,29.785,24.414,-0.977,0
1540168020.123,0.977,23.438,30.762,27.344,-42.969,0
1540168020.127,-7.812,20.996,31.738,40.527,8.301,0
1540168020.131,-9.766,22.949,31.250,37.598,57.129,0
1540168020.135,-7.812,20.996,30.273,19.531,3.418,0
1540168020.139,3.906,19.043,32.715,25.391,26.855,0
1540168020.143,14.160,24.902,34.180,34.180,41.504,0
1540168020.147,7.324,24.902,30.762,26.367,46.875,0
1540168020.151,-4.883,23.926,31.250,21.484,30.762,0
1540168020.155,1.953,25.391,30.762,20.996,57.129,0
1540168020.159,6.836,23.438,28.809,24.902,63.477,0
1540168020.163,2.930,24.902,26.855,22.949,1.465,0
1540168020.166,-4.883,24.414,28.320,18.555,23.926,0
1540168020.170,-0.977,22.461,28.809,17.578,103.027,0
1540168020.174,2.930,22.949,24.902,18.066,71.289,0
1540168020.178,3.418,23.438,24.902,26.855,-26.855,0
1540168020.182,6.836,23.438,23.926,32.715,11.230,0
1540168020.186,5.859,23.926,21.973,22.949,60.547,0
1540168020.190,11.230,24.414,26.367,22.461,16.113,0
1540168020.194,13.672,24.414,25.391,28.320,38.086,0
1540168020.198,12.695,24.414,24.414,29.785,64.453,0
1540168020.202,15.137,23.926,25.879,26.367,-22.461,0
1540168020.205,17.578,24.902,30.273,26.855,-62.012,0
1540168020.209,19.043,24.414,30.273,33.203,-52.246,0
1540168020.213,15.137,24.902,27.832,33.203,-8.301,0
1540168020.217,16.602,25.391,29.297,30.273,1.465,0
1540168020.221,21.484,22.949,31.738,28.809,-4.883,0
1540168020.225,14.648,22.949,30.762,30.273,39.062,0
1540168020.229,8.789,24.902,26.855,32.715,89.844,0
1540168020.233,14.160,25.391,29.785,32.227,101.562,0
1540168020.237,6.348,20.996,28.809,26.855,29.297,0
1540168020.241,4.395,22.949,23.438,24.902,5.371,0
1540168020.245,10.254,26.367,23.438,31.250,44.922,0
1540168020.248,8.301,26.855,27.344,35.645,54.199,0
1540168020.252,10.254,26.855,27.832,33.203,26.367,0
1540168020.256,5.371,25.391,25.879,26.855,-16.602,0
1540168020.260,4.395,25.879,29.297,29.785,13.184,0
1540168020.264,14.160,25.391,24.414,33.203,9.766,0
1540168020.268,18.066,25.879,18.555,25.391,12.695,0
1540168020.272,26.367,27.344,29.785,26.855,45.898,0
1540168020.276,32.715,28.809,24.902,35.156,59.082,0
1540168020.280,28.809,29.297,13.672,33.691,66.406,0
1540168020.284,25.391,31.250,26.855,30.762,44.922,0
1540168020.288,27.832,35.645,35.156,28.809,50.293,0
1540168020.291,31.250,36.133,30.762,32.227,28.809,0
1540168020.295,33.203,34.668,30.273,40.039,-8.301,0
1540168020.299,29.297,35.156,29.785,36.133,-2.930,0
1540168020.303,26.855,37.598,30.273,25.879,28.809,0
1540168020.307,21.973,34.180,29.297,21.973,37.598,0
1540168020.311,13.672,30.762,28.809,25.879,29.785,0
1540168020.315,12.207,31.250,28.320,27.832,94.727,0
1540168020.319,2.441,29.785,25.391,21.973,92.285,0
1540168020.323,-1.465,28.320,26.367,23.926,42.480,0
1540168020.327,-1.953,25.879,25.879,33.691,91.797,0
1540168020.330,-3.418,22.461,26.367,33.691,85.449,0
1540168020.334,-1.953,23.926,27.832,30.273,33.203,0
1540168020.338,0.977,25.879,27.344,30.762,10.254,0
1540168020.342,-2.441,23.926,30.273,30.762,47.852,0
1540168020.346,-2.441,22.949,31.250,30.273,83.984,0
1540168020.350,0.000,28.320,32.227,31.250,55.664,0
1540168020.354,-0.488,27.344,33.691,22.949,56.641,0
1540168020.358,-2.441,24.902,30.762,13.672,56.152,0
1540168020.362,0.000,25.879,26.855,19.531,20.020,0
1540168020.366,-0.977,23.926,28.320,22.949,13.672,0
1540168020.370,-0.977,25.391,28.809,20.508,1.465,0
1540168020.373,8.789,25.879,26.367,16.602,38.574,0
1540168020.377,24.414,29.297,22.461,16.113,59.082,0
1540168020.381,38.086,28.809,23.438,14.160,23.438,0
1540168020.385,43.945,26.367,29.785,11.719,62.988,0
1540168020.389,49.316,24.414,30.273,18.555,75.684,0
1540168020.393,47.852,20.508,27.344,21.484,20.508,0
1540168020.397,43.457,19.043,31.738,20.508,-5.371,0
1540168020.401,42.969,20.996,38.086,21.973,2.441,0
1540168020.405,37.109,20.508,38.574,20.508,17.090,0
1540168020.409,22.949,18.066,32.227,24.902,-16.113,0
1540168020.413,14.648,20.020,28.320,30.762,-53.711,0
1540168020.416,9.766,22.949,29.297,30.762,15.137,0
1540168020.420,13.184,22.461,28.320,26.367,30.273,0
1540168020.424,10.742,22.461,24.414,28.320,-10.254,0
1540168020.428,3.418,20.996,20.508,29.785,28.320,0
1540168020.432,-2.441,19.043,22.461,28.320,37.598,0
1540168020.436,4.395,22.461,29.785,29.297,-54.199,0
1540168020.440,16.602,22.461,27.832,31.250,-5.859,0
1540168020.444,16.602,22.461,26.367,29.785,37.109,0
1540168020.448,13.672,23.438,27.344,28.320,-8.789,0
1540168020.452,13.184,23.926,24.902,29.297,25.879,0
1540168020.455,24.414,20.508,23.926,26.855,3.418,0
1540168020.459,27.344,20.020,24.902,27.832,33.203,0
1540168020.463,30.762,25.879,25.879,34.180,15.625,0
1540168020.467,26.855,26.367,24.902,31.738,-24.414,0
1540168020.471,20.020,22.949,26.367,22.949,20.020,0
1540168020.475,18.066,27.832,24.902,22.461,7.812,0
1540168020.479,19.531,35.645,25.391,27.344,32.715,0
1540168020.483,26.855,39.062,24.414,27.344,3.906,0
1540168020.487,36.621,38.574,24.414,31.250,-29.297,0
1540168020.491,39.062,31.738,26.367,32.227,31.738,0
1540168020.495,47.363,24.902,18.066,29.785,75.684,0
1540168020.498,53.223,26.367,20.020,32.227,40.527,0
1540168020.502,42.969,29.785,32.715,25.391,37.109,0
1540168020.506,30.762,23.926,37.598,22.461,53.223,0
1540168020.510,24.414,17.090,37.109,25.879,115.723,0
1540168020.514,38.086,21.973,30.762,25.879,70.312,0
1540168020.518,30.762,25.391,22.949,22.461,-5.371,0
1540168020.522,17.090,24.414,25.879,23.438,12.207,0
1540168020.526,20.020,21.973,27.344,22.949,21.973,0
1540168020.530,24.414,23.438,23.926,22.949,3.418,0
1540168020.534,35.645,20.996,26.367,20.996,-7.324,0
1540168020.538,36.133,17.090,21.973,12.695,1.953,0
1540168020.541,27.832,21.484,20.508,16.602,-31.250,0
1540168020.545,28.809,21.973,26.855,25.879,-38.574,0
1540168020.549,32.227,20.996,20.020,21.484,-4.395,0
1540168020.553,35.645,17.578,13.184,11.230,16.113,0
1540168020.557,42.969,13.672,19.043,11.230,-2.441,0
1540168020.561,51.270,18.555,18.066,17.578,8.301,0
1540168020.565,52.246,17.578,14.648,18.066,83.008,0
1540168020.569,52.246,15.137,20.508,13.184,74.707,0
1540168020.573,50.781,16.113,23.438,12.695,51.270,0
1540168020.577,49.316,15.137,20.996,17.090,46.387,0
1540168020.580,52.734,19.043,19.531,16.602,-20.508,0
1540168020.584,50.293,17.578,19.531,13.184,48.340,0
1540168020.588,57.617,14.648,20.996,12.207,84.473,0
1540168020.592,57.129,18.066,19.531,13.672,14.648,0
1540168020.596,50.293,17.578,20.020,13.184,-18.066,0
1540168020.600,52.734,18.555,24.414,14.648,-5.371,0
1540168020.604,55.664,24.414,28.320,14.648,8.301,0
1540168020.608,53.711,26.855,26.367,13.672,-8.789,0
1540168020.612,49.316,24.414,24.902,22.949,11.719,0
1540168020.616,46.387,19.043,24.414,19.531,37.598,0
1540168020.620,46.875,19.531,23.438,10.742,42.480,0
1540168020.623,44.434,23.438,23.438,12.695,62.012,1
1540168020.627,43.457,25.391,24.414,20.996,-16.113,0
1540168020.631,48.828,26.367,29.297,28.320,-41.016,0
1540168020.635,49.316,24.414,32.227,24.414,57.129,0
1540168020.639,50.781,24.414,27.832,23.438,34.668,0
1540168020.643,54.199,30.273,24.414,27.832,15.137,0
1540168020.647,58.594,32.227,32.227,31.250,47.363,0
1540168020.651,54.688,27.344,32.227,30.273,14.160,0
1540168020.655,52.734,26.367,27.344,25.391,-8.789,0
1540168020.659,49.805,25.879,24.902,26.367,6.836,0
1540168020.663,45.898,24.902,23.438,28.809,6.348,0
1540168020.666,53.711,26.855,27.344,27.832,27.832,0
1540168020.670,63.965,25.879,26.367,25.879,30.762,0
1540168020.674,67.871,21.973,28.320,27.832,21.484,0
1540168020.678,69.824,26.855,30.273,30.273,50.781,0
1540168020.682,78.613,32.227,29.785,31.250,45.410,0
1540168020.686,86.914,30.762,30.762,28.809,-10.254,0
1540168020.690,82.031,24.414,25.879,20.996,-63.477,0
1540168020.694,79.590,23.926,24.414,25.879,15.625,0
1540168020.698,83.496,24.902,24.414,35.156,85.938,0
1540168020.702,86.914,25.879,20.996,31.250,44.434,0
1540168020.705,89.355,26.367,16.113,19.531,78.613,0
1540168020.709,83.008,24.414,10.742,20.508,60.059,0
1540168020.713,81.055,23.438,6.836,25.879,46.387,0
1540168020.717,78.125,23.438,4.395,23.926,38.086,0
1540168020.721,74.219,23.926,2.441,24.414,8.301,0
1540168020.725,66.895,22.461,0.488,26.855,18.066,0
1540168020.729,49.316,20.508,0.977,30.273,-10.254,0
1540168020.733,73.242,22.461,0.977,29.297,7.324,0
1540168020.737,93.262,23.926,0.977,24.414,1.465,0
1540168020.741,84.473,24.902,2.441,24.902,12.695,0
1540168020.745,79.590,22.949,7.324,27.344,14.648,0
1540168020.748,78.125,20.996,9.277,27.344,15.625,0
1540168020.752,75.684,19.043,9.766,23.926,29.785,0
1540168020.756,76.660,19.043,6.836,21.973,-8.789,0
1540168020.760,83.496,23.438,11.230,27.344,5.371,0
1540168020.764,83.496,21.484,16.602,31.250,18.066,0
1540168020.768,83.008,20.996,14.648,26.855,38.574,0
1540168020.772,82.031,21.484,14.160,24.414,48.340,0
1540168020.776,80.566,20.020,17.090,24.414,23.438,0
1540168020.780,83.984,21.484,18.555,20.996,24.902,0
1540168020.784,87.891,23.926,20.996,22.949,6.836,0
1540168020.788,86.914,21.973,20.996,20.996,18.555,0
1540168020.791,83.008,23.926,25.391,21.484,22.949,0
1540168020.795,78.613,24.414,25.391,23.926,46.387,0
1540168020.799,77.148,23.438,19.531,20.996,72.266,0
1540168020.803,81.543,26.367,20.996,21.973,41.992,0
1540168020.807,82.031,27.344,25.391,23.926,-5.859,0
1540168020.811,80.566,25.879,24.902,26.367,-29.297,0
1540168020.815,80.566,25.879,21.973,27.344,37.109,0
1540168020.819,56.152,25.391,26.855,21.973,103.027,0
1540168020.823,62.012,26.855,29.785,20.020,77.148,0
1540168020.827,88.867,27.832,24.902,20.996,49.805,0
1540168020.830,75.195,23.438,22.949,17.090,47.852,0
1540168020.834,70.312,22.949,24.902,20.996,4.883,0
1540168020.838,70.801,21.973,27.832,19.531,30.762,0
1540168020.842,68.359,20.996,33.691,19.531,-0.977,0
1540168020.846,71.289,24.414,33.691,27.344,-16.113,0
1540168020.850,66.406,19.531,33.691,20.996,21.484,0
1540168020.854,68.848,17.578,38.086,18.555,52.246,0
1540168020.858,69.824,21.484,36.621,24.414,89.844,0
1540168020.862,69.336,21.973,41.992,32.227,18.066,0
1540168020.866,69.336,22.949,44.434,32.715,-6.836,0
1540168020.870,68.848,25.391,35.156,22.949,7.324,0
1540168020.873,70.312,23.438,32.227,20.020,39.551,0
1540168020.877,66.895,22.949,34.180,27.344,73.730,0
1540168020.881,63.965,22.461,35.645,30.273,10.742,0
1540168020.885,63.477,21.973,32.715,24.902,22.949,0
1540168020.889,66.895,24.902,32.227,21.973,68.359,0
1540168020.893,62.500,24.414,36.621,22.461,75.684,0
1540168020.897,60.059,21.973,38.574,26.367,65.918,0
1540168020.901,61.035,20.508,38.086,25.391,10.254,0
1540168020.905,63.477,18.555,37.109,23.438,11.719,0
1540168020.909,63.965,21.484,37.598,28.320,56.641,0
1540168020.913,61.035,24.414,40.527,29.297,34.180,0
1540168020.916,59.082,24.414,39.551,26.855,5.371,0
1540168020.920,51.758,23.926,38.086,20.508,23.926,0
1540168020.924,46.387,24.902,37.109,20.508,7.812,0
1540168020.928,44.922,23.926,31.250,25.879,-45.898,0
1540168020.932,45.410,24.414,31.250,27.344,-12.207,0
1540168020.936,49.805,27.832,36.621,25.391,22.949,0
1540168020.940,52.246,26.367,34.668,22.949,7.812,0
1540168020.944,52.246,25.391,36.133,25.879,23.926,0
1540168020.948,63.477,30.762,37.109,32.227,39.062,0
1540168020.952,68.359,28.809,33.203,31.250,76.660,0
1540168020.955,68.359,28.320,33.691,29.297,52.734,0
1540168020.959,70.801,29.785,33.203,32.227,14.160,0
1540168020.963,74.707,27.344,32.715,37.598,21.973,0
1540168020.967,73.242,30.273,30.273,34.668,23.438,0
1540168020.971,67.871,37.598,25.391,19.531,14.160,0
1540168020.975,61.523,40.039,26.367,16.602,31.250,0
1540168020.979,59.082,38.574,36.621,23.438,17.090,0
1540168020.983,59.082,34.668,38.086,23.438,77.637,0
1540168020.987,60.547,32.715,31.250,20.508,54.199,0
1540168020.991,64.941,32.715,27.832,21.484,-7.812,0
1540168020.995,65.430,28.320,29.785,31.250,38.574,0
1540168020.998,61.523,27.832,15.137,35.156,51.758,0
1540168021.002,51.270,20.020,4.395,24.414,-19.531,0
1540168021.006,43.945,19.531,20.020,19.531,-47.852,0
1540168021.010,34.668,25.879,37.598,16.113,39.551,0
1540168021.014,34.180,20.020,55.664,17.578,14.160,0
1540168021.018,40.039,25.879,43.457,20.020,20.996,0
1540168021.022,44.434,28.809,30.273,11.230,44.922,0
1540168021.026,46.875,19.043,42.480,8.789,9.277,0
1540168021.030,52.734,21.484,53.711,11.719,41.992,0
1540168021.034,53.711,26.855,49.316,10.254,106.445,0
1540168021.038,54.688,24.902,38.574,8.789,50.293,0
1540168021.041,56.152,17.578,34.668,10.742,-21.973,0
1540168021.045,53.711,16.113,36.133,17.090,-1.465,0
1540168021.049,48.340,14.648,37.109,20.508,1.953,0
1540168021.053,52.734,16.113,32.227,17.578,21.973,0
1540168021.057,63.477,30.273,31.250,23.438,75.195,0
1540168021.061,61.523,31.738,33.203,22.949,43.945,0
1540168021.065,59.082,25.879,31.250,20.996,-20.508,0
1540168021.069,52.246,21.973,26.855,22.461,-0.977,0
1540168021.073,45.898,18.555,26.367,21.484,50.293,0
1540168021.077,42.480,22.461,31.250,25.391,-18.555,0
1540168021.080,43.945,26.367,33.691,35.645,-28.809,0
1540168021.084,47.363,23.926,31.250,35.156,21.973,0
1540168021.088,49.805,24.902,27.344,23.438,-0.977,0
1540168021.092,46.875,29.785,28.809,26.367,-28.809,0
1540168021.096,41.016,25.879,35.156,31.738,8.301,0
1540168021.100,41.016,22.949,38.086,29.785,36.133,0
1540168021.104,43.457,24.902,35.645,27.344,49.805,0
1540168021.108,37.598,21.973,34.180,26.855,44.434,0
1540168021.112,34.668,20.508,36.621,29.785,40.527,0
1540168021.116,40.039,21.484,39.062,30.762,2.441,0
1540168021.120,40.039,21.973,34.668,22.461,-65.918,0
1540168021.123,41.992,24.902,32.715,21.973,6.348,0
1540168021.127,43.457,25.391,36.621,30.273,62.988,0
1540168021.131,43.945,25.391,32.715,30.762,-23.926,0
1540168021.135,41.016,27.344,30.273,25.879,22.461,0
1540168021.139,38.574,25.879,32.715,19.043,65.918,0
1540168021.143,41.016,28.320,31.250,21.973,-7.324,0
1540168021.147,44.434,27.344,31.738,26.367,20.020,0
1540168021.151,48.340,30.762,30.762,22.949,58.594,0
1540168021.155,55.176,35.156,25.391,20.020,22.949,0
1540168021.159,53.223,27.344,29.297,18.555,-22.949,0
1540168021.163,45.410,20.996,34.180,19.531,4.395,0
1540168021.166,43.457,20.996,33.203,21.973,55.176,0
1540168021.170,52.734,24.414,35.645,16.602,100.586,0
1540168021.174,50.293,26.367,35.156,11.230,46.875,0
1540168021.178,45.410,25.391,30.273,16.602,11.719,0
1540168021.182,48.828,22.461,28.809,19.043,41.504,0
1540168021.186,51.758,22.461,31.738,14.648,8.789,0
1540168021.190,52.734,21.973,27.832,15.137,21.484,0
1540168021.194,57.129,21.484,25.391,20.020,11.230,0
1540168021.198,62.012,20.996,30.762,14.648,36.133,0
1540168021.202,59.570,20.020,29.297,6.836,39.062,0
1540168021.205,67.383,23.926,28.320,7.324,68.848,0
1540168021.209,77.637,28.320,32.715,15.137,67.383,0
1540168021.213,80.566,29.785,31.250,18.066,-26.855,0
1540168021.217,85.449,27.832,27.832,16.113,-16.113,0
1540168021.221,90.820,25.879,28.809,9.766,31.738,0
1540168021.225,97.656,26.367,29.297,6.836,-2.930,0
1540168021.229,107.910,26.367,26.367,11.719,-15.137,0
1540168021.233,113.281,33.203,24.414,10.742,29.785,0
1540168021.237,116.211,37.598,25.879,9.277,35.645,0
1540168021.241,115.234,30.762,27.344,9.766,46.387,0
1540168021.245,108.398,30.273,26.855,13.184,25.391,0
1540168021.248,103.027,30.273,25.391,19.043,-2.930,0
1540168021.252,95.703,27.344,23.438,22.949,30.762,0
1540168021.256,91.797,26.855,20.996,24.414,71.289,0
1540168021.260,88.867,23.926,18.066,26.367,41.992,1
1540168021.264,93.262,21.973,21.484,30.762,37.598,0
1540168021.268,96.191,23.438,24.414,29.297,6.348,0
1540168021.272,94.238,25.879,24.414,24.414,37.598,0
1540168021.276,95.703,24.414,27.344,29.297,56.152,0
1540168021.280,93.750,25.391,25.879,32.715,30.273,0
1540168021.284,88.379,25.391,24.414,29.297,55.176,0
1540168021.288,94.238,23.926,27.832,27.832,12.695,0
1540168021.291,103.516,27.832,26.855,27.344,10.742,0
1540168021.295,104.492,23.926,19.043,26.367,-33.691,0
1540168021.299,97.656,16.602,18.066,25.391,-17.578,0
1540168021.303,96.680,17.578,30.273,26.367,45.898,0
1540168021.307,101.562,20.508,34.180,28.809,23.926,0
1540168021.311,99.121,23.438,28.809,32.715,21.973,0
1540168021.315,94.727,22.949,28.320,29.785,0.000,0
1540168021.319,88.867,20.996,27.344,21.973,-7.812,0
1540168021.323,89.355,23.438,24.414,22.949,27.344,0
1540168021.327,84.961,24.414,20.020,26.367,27.344,0
1540168021.330,80.566,24.414,19.531,27.832,35.156,0
1540168021.334,81.543,25.879,21.973,25.391,26.367,0
1540168021.338,79.590,24.902,20.508,19.531,-14.160,0
1540168021.342,78.125,25.391,18.555,24.902,-2.930,0
1540168021.346,79.102,24.902,21.973,27.832,47.852,0
1540168021.350,73.242,25.391,22.461,27.344,52.246,0
1540168021.354,77.148,29.297,24.414,25.879,-0.488,0
1540168021.358,79.590,29.297,30.762,25.879,15.625,0
1540168021.362,73.242,27.344,23.926,26.367,45.898,0
1540168021.366,67.871,27.344,17.578,22.461,15.625,0
1540168021.370,63.965,28.809,22.949,23.438,48.828,0
1540168021.373,62.988,27.344,22.949,23.926,54.199,0
1540168021.377,60.059,24.414,21.973,23.438,43.945,0
1540168021.381,59.570,28.320,26.855,27.344,66.895,0
1540168021.385,55.664,28.809,28.809,22.949,34.180,0
1540168021.389,61.035,28.320,27.344,18.066,28.320,0
1540168021.393,63.965,31.738,28.320,22.949,14.160,0
1540168021.397,59.570,31.738,29.297,28.320,17.578,0
1540168021.401,59.570,28.809,28.809,23.926,39.062,0
1540168021.405,64.453,28.809,31.738,18.555,37.109,0
1540168021.409,67.383,30.762,29.785,19.531,49.805,0
1540168021.413,68.848,32.715,25.879,19.531,40.039,0
1540168021.416,72.266,34.180,26.855,19.043,47.852,0
1540168021.420,69.336,33.691,29.785,14.648,41.992,0
1540168021.424,68.359,33.691,23.926,17.090,60.059,0
1540168021.428,71.777,32.715,19.043,26.855,48.340,0
1540168021.432,76.172,29.785,20.996,27.832,46.875,0
1540168021.436,79.102,27.344,24.414,22.949,30.762,0
1540168021.440,83.984,28.809,27.832,23.438,-6.836,0
1540168021.444,75.195,28.320,34.668,23.926,15.137,0
1540168021.448,65.918,25.391,32.227,20.020,64.941,0
1540168021.452,70.801,26.367,28.320,18.555,57.617,0
1540168021.455,69.336,25.879,30.762,15.137,-11.719,0
1540168021.459,68.848,25.879,24.902,15.625,-3.906,0
1540168021.463,75.195,31.738,25.391,16.602,7.324,0
1540168021.467,75.684,31.250,30.273,14.160,5.859,0
1540168021.471,86.914,28.320,29.297,16.602,16.602,0
1540168021.475,95.703,30.762,31.738,21.484,24.414,0
1540168021.479,97.168,33.691,33.691,26.367,15.137,0
1540168021.483,93.262,30.273,30.273,21.973,11.719,0
1540168021.487,86.914,27.344,29.785,15.137,10.254,0
1540168021.491,83.008,30.762,32.715,16.602,-17.578,0
1540168021.495,72.266,28.809,31.250,21.484,-23.438,0
1540168021.498,64.941,25.391,28.809,23.926,11.719,0
1540168021.502,68.848,25.391,29.297,22.949,33.691,0
1540168021.506,72.266,28.320,26.855,24.414,11.230,0
1540168021.510,65.918,26.367,26.367,27.832,-9.277,0
1540168021.514,64.941,22.461,25.391,27.832,18.555,0
1540168021.518,64.453,23.438,23.438,24.902,51.758,0
1540168021.522,60.059,21.484,20.996,20.508,50.781,0
1540168021.526,54.199,20.020,17.578,23.438,53.223,0
1540168021.530,51.270,23.438,21.973,31.250,47.852,0
1540168021.534,51.758,24.902,19.531,26.855,40.039,0
1540168021.538,58.594,26.367,15.625,28.809,54.199,0
1540168021.541,62.500,20.508,16.113,24.414,5.371,0
1540168021.545,63.965,16.602,16.113,15.625,11.230,0
1540168021.549,62.988,20.996,18.555,21.973,89.844,0
1540168021.553,51.270,20.020,20.508,18.066,40.039,0
1540168021.557,40.527,23.438,26.367,15.137,5.859,0
1540168021.561,32.715,26.367,34.180,20.996,46.387,0
1540168021.565,34.180,26.367,40.039,25.879,12.207,0
1540168021.569,33.203,31.738,40.527,27.832,49.316,0
1540168021.573,15.625,20.996,27.344,15.137,57.129,0
1540168021.577,-3.906,10.742,25.391,8.789,9.277,0
1540168021.580,-5.371,19.531,30.762,15.137,67.383,0
1540168021.584,-9.766,24.414,25.391,12.695,24.414,0
1540168021.588,-25.879,23.926,28.809,7.812,2.441,0
1540168021.592,-30.273,24.902,31.250,5.371,-2.441,0
1540168021.596,-15.137,28.809,32.227,11.230,-10.254,0
1540168021.600,-4.883,29.785,39.551,15.625,33.203,0
1540168021.604,-11.230,28.809,32.715,0.000,44.434,0
1540168021.608,-20.020,31.250,28.320,-5.371,79.102,0
1540168021.612,-27.832,32.227,27.344,2.441,60.547,0
1540168021.616,-37.109,33.203,20.020,-2.441,93.262,0
1540168021.620,-46.875,38.574,19.043,-10.254,68.359,0
1540168021.623,-50.781,41.504,22.461,-13.184,7.812,0
1540168021.627,-49.316,43.945,22.461,-7.324,30.273,0
1540168021.631,-53.223,43.945,24.414,-3.906,53.711,0
1540168021.635,-53.711,41.992,20.508,-1.953,22.461,0
1540168021.639,-44.922,47.363,20.508,0.000,2.441,0
1540168021.643,-41.992,45.410,27.344,2.930,-3.418,0
1540168021.647,-37.109,38.086,21.973,9.277,-4.883,0
1540168021.651,-27.344,37.598,24.902,12.695,30.273,0
1540168021.655,-22.461,39.551,33.203,10.254,56.641,0
1540168021.659,-23.926,40.039,34.668,15.137,54.199,0
1540168021.663,-27.344,40.039,35.156,20.020,-21.484,0
1540168021.666,-37.109,40.527,34.180,15.625,-20.020,0
1540168021.670,-29.785,41.992,34.180,13.184,12.695,0
1540168021.674,-11.230,41.504,32.227,13.672,49.805,0
1540168021.678,-2.930,40.039,27.344,19.043,82.520,0
1540168021.682,4.395,36.133,28.809,20.508,30.762,0
1540168021.686,15.625,37.109,36.133,15.625,16.602,0
1540168021.690,16.113,40.039,39.062,16.113,17.090,0
1540168021.694,-2.441,38.086,34.668,18.555,6.348,0
1540168021.698,-22.949,32.715,25.391,20.996,47.363,0
1540168021.702,-47.852,32.715,26.855,22.949,-1.465,0
1540168021.705,-69.824,36.621,33.691,19.531,-51.758,0
1540168021.709,-87.891,38.574,34.668,21.973,8.301,0
1540168021.713,-100.586,39.062,30.273,24.902,56.641,0
1540168021.717,-109.863,38.574,30.273,20.020,37.598,0
1540168021.721,-112.305,37.109,29.785,19.531,51.270,0
1540168021.725,-115.723,36.621,26.367,23.926,30.762,0
1540168021.729,-125.977,35.156,21.484,24.902,-11.719,0
1540168021.733,-127.441,33.691,21.484,24.414,17.578,0
1540168021.737,-131.836,33.691,22.949,20.996,47.363,0
1540168021.741,-139.160,32.715,25.879,19.043,26.367,0
1540168021.745,-137.207,32.227,27.832,24.414,7.812,0
1540168021.748,-140.625,31.738,26.855,28.320,25.391,0
1540168021.752,-145.996,29.785,21.484,23.438,34.180,0
1540168021.756,-147.949,29.297,17.578,16.602,43.457,0
1540168021.760,-156.250,32.227,28.320,24.414,63.477,0
1540168021.764,-160.645,30.273,35.156,29.785,26.367,0
1540168021.768,-161.133,25.391,35.645,22.461,7.812,0
1540168021.772,-162.598,23.926,40.527,20.020,20.508,0
1540168021.776,-160.645,26.367,39.551,27.832,55.664,0
1540168021.780,-164.551,22.949,35.156,33.203,68.359,0
1540168021.784,-169.922,19.531,34.180,34.180,36.621,0
1540168021.788,-174.316,23.926,38.086,31.738,26.855,0
1540168021.791,-180.176,22.949,40.527,30.273,37.109,0
1540168021.795,-185.059,23.926,36.133,34.180,64.941,0
1540168021.799,-193.359,26.855,33.203,34.180,9.766,0
1540168021.803,-187.988,20.508,38.086,32.227,-5.859,0
1540168021.807,-179.688,17.090,41.992,28.809,-24.902,0
1540168021.811,-172.852,18.066,42.480,30.273,-8.301,0
1540168021.815,-159.180,20.996,43.457,34.668,64.941,0
1540168021.819,-153.809,20.996,41.504,36.133,1.953,0
1540168021.823,-147.461,20.996,39.062,32.715,-35.645,0
1540168021.827,-148.926,20.020,39.062,34.668,34.180,0
1540168021.830,-142.578,18.555,39.062,42.480,10.254,1
1540168021.834,-143.066,20.996,37.109,41.016,0.977,0
1540168021.838,-154.297,22.461,35.156,31.738,45.410,0
1540168021.842,-157.227,21.484,32.715,33.691,46.387,0
1540168021.846,-156.738,21.973,25.391,38.086,11.719,0
1540168021.850,-143.555,23.438,20.020,36.621,34.668,0
1540168021.854,-127.441,26.367,28.320,29.785,84.961,0
1540168021.858,-127.930,24.902,37.109,22.461,22.461,0
1540168021.862,-140.137,19.531,40.039,23.438,9.277,0
1540168021.866,-146.973,19.043,38.574,25.391,27.832,0
1540168021.870,-148.926,20.996,39.062,25.879,26.367,0
1540168021.873,-155.762,19.043,36.621,22.949,54.199,0
1540168021.877,-148.926,20.020,31.738,20.996,26.367,0
1540168021.881,-132.812,20.996,32.715,24.902,42.480,0
1540168021.885,-132.324,25.879,30.273,26.367,70.312,0
1540168021.889,-128.418,25.391,21.973,19.043,62.988,0
1540168021.893,-120.117,18.066,20.508,22.949,8.789,0
1540168021.897,-118.164,20.508,22.949,29.785,-51.270,0
1540168021.901,-119.629,21.484,20.020,29.297,22.949,0
1540168021.905,-117.188,15.625,13.184,24.414,51.758,0
1540168021.909,-115.723,18.555,6.348,26.367,41.504,0
1540168021.913,-109.375,21.973,6.348,35.156,33.691,0
1540168021.916,-94.727,22.949,12.207,36.621,35.645,0
1540168021.920,-73.730,24.414,18.066,33.691,9.277,0
1540168021.924,-55.664,22.461,26.367,29.297,-5.371,0
1540168021.928,-42.969,23.926,28.809,29.297,15.137,0
1540168021.932,-28.809,25.879,24.414,31.738,-16.113,0
1540168021.936,-15.625,26.367,28.320,30.273,-28.809,0
1540168021.940,-5.371,27.344,35.645,30.273,-7.324,0
1540168021.944,-12.695,23.926,32.715,35.645,23.926,0
1540168021.948,-15.625,19.043,33.203,36.621,44.922,0
1540168021.952,-9.766,19.043,37.598,36.621,41.504,0
1540168021.955,-14.160,22.461,39.062,28.809,9.277,0
1540168021.959,-32.227,22.461,38.086,24.414,7.324,0
1540168021.963,-43.945,23.438,36.621,27.344,8.301,0
1540168021.967,-42.480,27.344,34.668,20.508,71.289,0
1540168021.971,-36.133,28.320,36.133,21.484,103.516,0
1540168021.975,-23.926,26.855,38.086,28.320,74.219,0
1540168021.979,-16.113,26.855,39.062,25.391,60.547,0
1540168021.983,-30.762,25.879,33.691,24.902,53.223,0
1540168021.987,-45.898,22.949,31.250,26.367,53.711,0
1540168021.991,-59.082,21.484,33.691,22.461,27.832,0
1540168021.995,-79.590,23.438,33.691,25.879,28.320,0
1540168021.998,-91.797,24.414,30.273,29.297,51.270,0
1540168022.002,-96.680,21.484,29.297,28.320,26.367,0
1540168022.006,-91.309,18.555,33.203,24.902,45.410,0
1540168022.010,-87.891,21.973,37.109,25.879,85.449,0
1540168022.014,-87.402,24.902,36.133,28.320,47.852,0
1540168022.018,-84.961,21.484,36.133,23.926,17.090,0
1540168022.022,-78.613,18.555,37.598,20.996,33.203,0
1540168022.026,-82.520,18.066,33.203,17.578,30.762,0
1540168022.030,-87.891,16.602,35.645,21.484,24.414,0
1540168022.034,-87.402,18.555,35.156,26.855,52.734,0
1540168022.038,-92.773,20.020,33.203,18.066,43.945,0
1540168022.041,-86.914,22.461,36.621,15.137,41.992,0
1540168022.045,-88.379,25.879,35.156,24.414,55.176,0
1540168022.049,-96.680,26.855,32.715,24.414,23.438,0
1540168022.053,-87.891,28.320,34.180,24.414,-18.555,0
1540168022.057,-86.914,26.367,34.180,22.461,-1.465,0
1540168022.061,-96.191,23.438,32.227,20.020,40.039,0
1540168022.065,-98.145,23.926,33.691,22.949,17.090,0
1540168022.069,-96.191,23.438,37.598,22.949,18.555,0
1540168022.073,-88.379,27.832,35.156,24.902,3.906,0
1540168022.077,-83.008,33.203,34.180,27.832,-18.555,0
1540168022.080,-74.219,30.762,35.156,25.879,6.348,0
1540168022.084,-64.453,29.785,30.762,20.996,-27.344,0
1540168022.088,-55.176,33.691,27.832,17.578,-2.441,0
1540168022.092,-38.086,36.621,32.227,15.625,44.922,0
1540168022.096,-31.250,33.691,32.715,15.625,29.297,0
1540168022.100,-38.574,31.738,28.809,13.672,46.875,0
1540168022.104,-45.410,31.738,25.879,13.672,45.898,0
1540168022.108,-50.293,25.879,24.902,18.066,36.133,0
1540168022.112,-57.617,23.926,31.250,23.438,25.391,0
1540168022.116,-62.988,25.391,36.621,27.832,41.504,0
1540168022.120,-68.359,25.879,37.109,27.344,32.715,0
1540168022.123,-70.312,26.367,32.227,26.855,21.484,0
1540168022.127,-65.430,28.809,30.273,29.297,42.480,0
1540168022.131,-59.570,28.320,33.691,27.344,26.855,0
1540168022.135,-49.805,29.297,36.621,26.855,57.617,0
1540168022.139,-40.527,31.250,37.598,20.020,86.914,0
1540168022.143,-38.086,30.762,34.668,15.625,4.883,0
1540168022.147,-31.738,29.297,31.250,26.367,41.504,0
1540168022.151,-15.625,28.809,33.203,32.227,94.238,0
1540168022.155,-2.930,28.809,30.762,21.484,-16.602,0
1540168022.159,9.277,28.320,31.738,16.113,-33.691,0
1540168022.163,29.297,25.879,34.668,18.066,30.273,0
1540168022.166,48.340,24.414,32.715,24.902,-7.812,0
1540168022.170,56.641,24.414,29.785,24.414,-6.348,0
1540168022.174,59.570,25.879,28.320,22.461,9.766,0
1540168022.178,54.688,30.762,26.855,29.785,-8.301,0
1540168022.182,46.387,30.762,25.391,25.391,44.922,0
1540168022.186,52.246,29.297,29.297,33.691,68.359,0
1540168022.190,55.176,31.250,29.297,33.203,29.785,0
1540168022.194,44.434,29.785,28.320,28.320,-12.695,0
1540168022.198,42.969,28.320,29.785,36.133,6.836,0
1540168022.202,47.852,25.391,31.250,24.902,13.672,0
1540168022.205,56.152,25.879,32.227,18.066,0.488,0
1540168022.209,55.664,27.832,30.273,21.973,0.977,0
1540168022.213,53.711,28.809,28.320,20.020,21.484,0
1540168022.217,58.105,28.320,29.785,28.320,11.230,0
1540168022.221,60.059,26.855,31.250,24.902,30.762,0
1540168022.225,67.383,27.832,29.785,23.926,87.402,0
1540168022.229,71.289,26.367,31.738,35.645,80.566,0
1540168022.233,73.730,31.250,33.691,25.879,8.789,0
1540168022.237,83.496,33.203,30.273,15.625,-5.371,0
1540168022.241,87.402,30.762,31.738,15.625,22.461,0
1540168022.245,84.961,29.785,35.156,16.113,-17.090,0
1540168022.248,83.984,29.785,33.691,23.438,-36.621,0
1540168022.252,82.520,26.855,29.297,25.879,-4.883,0
1540168022.256,87.891,25.879,26.855,23.926,39.551,0
1540168022.260,96.680,24.902,28.809,20.508,13.184,0
1540168022.264,103.516,19.531,29.297,22.461,34.180,0
1540168022.268,109.863,21.973,31.738,22.949,3.418,0
1540168022.272,117.188,23.438,32.715,12.207,-4.883,0
1540168022.276,113.770,22.461,24.414,14.648,24.414,0
1540168022.280,99.609,24.414,22.461,22.461,-26.367,0
1540168022.284,90.820,22.949,27.344,15.625,8.301,0
1540168022.288,81.055,20.996,29.785,9.766,65.430,0
1540168022.291,76.660,22.949,27.832,13.672,76.660,0
1540168022.295,83.496,24.902,28.320,15.625,80.566,0
1540168022.299,87.891,24.414,29.785,20.996,1.465,0
1540168022.303,83.984,21.484,27.344,30.273,-21.484,0
1540168022.307,85.449,20.996,25.879,25.391,104.492,0
1540168022.311,84.961,22.949,25.879,14.160,75.684,0
1540168022.315,76.172,20.508,28.809,22.949,-12.695,0
1540168022.319,79.102,20.996,29.785,25.879,4.395,0
1540168022.323,93.750,22.949,27.832,15.137,15.625,0
1540168022.327,98.145,20.508,28.320,7.324,9.766,0
1540168022.330,89.844,20.020,25.879,6.348,8.789,0
1540168022.334,79.590,23.926,22.949,9.766,56.152,0
1540168022.338,74.707,21.484,26.855,15.137,131.836,0
1540168022.342,67.383,16.602,30.273,18.066,84.473,0
1540168022.346,63.477,19.531,29.785,16.602,20.020,0
1540168022.350,68.848,20.996,32.227,19.043,5.859,0
1540168022.354,76.660,18.555,30.273,22.949,-35.156,0
1540168022.358,79.102,19.531,27.832,28.320,3.418,0
1540168022.362,77.148,19.531,35.156,36.133,18.066,0
1540168022.366,74.219,20.996,38.574,34.668,24.414,1
1540168022.370,71.289,21.484,35.156,24.902,63.477,0
1540168022.373,79.102,17.090,31.250,21.484,37.109,0
1540168022.377,93.750,20.020,35.645,22.949,38.086,0
1540168022.381,96.191,20.996,35.156,26.367,28.809,0
1540168022.385,92.285,19.043,28.809,24.414,6.348,0
1540168022.389,100.098,22.461,28.809,20.020,20.020,0
1540168022.393,99.121,20.508,29.297,31.738,24.414,0
1540168022.397,95.703,19.531,30.273,35.645,32.227,0
1540168022.401,101.562,21.484,25.391,28.809,16.602,0
1540168022.405,101.562,19.531,20.508,25.391,-32.227,0
1540168022.409,94.727,20.508,24.902,20.996,-32.227,0
1540168022.413,93.750,22.949,26.367,25.391,-8.301,0
1540168022.416,87.891,21.484,27.832,20.996,21.484,0
1540168022.420,77.637,18.066,26.855,21.484,14.160,0
1540168022.424,68.848,19.043,24.414,29.785,-10.254,0
1540168022.428,62.500,21.973,27.344,28.320,0.977,0
1540168022.432,58.105,22.461,25.879,24.414,42.480,0
1540168022.436,59.570,22.949,22.461,24.414,99.121,0
1540168022.440,68.848,21.973,23.926,22.461,71.289,0
1540168022.444,64.453,21.973,24.414,24.902,43.457,0
1540168022.448,71.289,22.461,25.391,30.273,99.609,0
1540168022.452,75.195,22.949,25.879,34.668,79.590,0
1540168022.455,64.453,23.438,22.949,25.879,-2.930,0
1540168022.459,63.477,23.926,23.926,23.926,39.551,0
1540168022.463,70.801,21.484,28.320,31.250,18.555,0
1540168022.467,77.637,20.996,29.297,33.691,18.555,0
1540168022.471,82.031,24.414,30.762,23.438,83.496,0
1540168022.475,91.309,30.273,32.227,14.648,42.969,0
1540168022.479,93.262,29.785,33.203,30.273,14.648,0
1540168022.483,83.008,26.367,28.809,28.320,52.734,0
1540168022.487,81.055,29.785,20.508,9.766,95.215,0
1540168022.491,85.449,27.832,22.461,13.184,44.434,0
1540168022.495,87.402,25.879,23.926,18.066,26.367,0
1540168022.498,83.496,25.391,21.973,18.066,11.719,0
1540168022.502,91.797,25.879,25.391,21.484,-19.531,0
1540168022.506,97.168,25.879,24.902,15.137,4.395,0
1540168022.510,97.656,23.926,23.926,17.090,-16.113,0
1540168022.514,103.516,22.949,22.949,28.809,-2.441,0
1540168022.518,101.562,23.438,20.508,23.926,0.488,0
1540168022.522,102.539,28.320,19.531,13.184,-6.348,0
1540168022.526,103.516,31.738,19.043,16.113,14.648,0
1540168022.530,105.957,28.809,22.949,23.926,76.172,0
1540168022.534,109.863,28.809,20.508,25.391,72.266,0
1540168022.538,117.676,31.738,18.555,26.367,34.668,0
1540168022.541,124.512,29.785,16.113,33.203,28.320,0
1540168022.545,117.676,33.203,17.578,31.738,8.301,0
1540168022.549,115.723,33.691,25.391,35.645,33.691,0
1540168022.553,125.000,29.297,28.320,28.809,27.832,0
1540168022.557,118.652,24.902,30.273,24.902,31.738,0
1540168022.561,89.844,25.391,30.273,24.902,89.844,0
1540168022.565,67.383,28.320,28.809,14.160,79.590,0
1540168022.569,57.617,28.320,28.320,15.625,37.598,0
1540168022.573,36.621,26.855,25.879,12.695,73.242,0
1540168022.577,11.719,24.902,24.902,17.090,59.082,0
1540168022.580,7.812,28.809,25.879,20.996,29.297,0
1540168022.584,-5.371,29.785,24.902,20.508,32.715,0
1540168022.588,-24.902,28.320,24.414,17.578,31.738,0
1540168022.592,-31.738,26.855,22.949,8.789,30.762,0
1540168022.596,-36.621,23.926,24.414,13.672,0.488,0
1540168022.600,-38.574,24.414,22.949,19.043,1.465,0
1540168022.604,-39.062,24.414,21.973,13.184,41.504,0
1540168022.608,-40.527,23.438,22.461,10.742,7.324,0
1540168022.612,-34.180,27.832,21.973,26.367,-4.883,0
1540168022.616,-15.137,26.855,24.902,30.762,54.199,0
1540168022.620,-3.418,21.973,28.320,15.625,124.023,0
1540168022.623,3.906,21.973,29.785,15.625,84.473,0
1540168022.627,16.113,24.414,30.273,28.809,-5.371,0
1540168022.631,20.508,22.949,30.762,26.855,-15.625,0
1540168022.635,25.879,21.484,27.344,20.508,2.441,0
1540168022.639,35.645,25.391,27.344,19.043,-6.348,0
1540168022.643,27.344,29.297,26.855,17.090,8.301,0
1540168022.647,28.809,31.250,24.902,26.367,21.973,0
1540168022.651,28.809,28.320,26.367,32.715,3.906,0
1540168022.655,32.227,26.855,30.273,29.297,-13.672,0
1540168022.659,39.551,31.250,34.668,25.879,-4.395,0
1540168022.663,35.645,29.785,36.621,26.855,-14.160,0
1540168022.666,48.828,25.879,35.645,20.996,10.742,0
1540168022.670,63.965,30.762,38.574,26.855,54.199,0
1540168022.674,64.453,29.297,41.992,31.738,-5.859,0
1540168022.678,49.805,24.902,33.691,30.762,22.949,0
1540168022.682,26.367,24.902,29.297,35.645,67.871,0
1540168022.686,6.836,23.438,31.250,27.832,19.043,0
1540168022.690,-9.277,23.926,27.832,34.180,66.406,0
1540168022.694,-28.809,23.438,25.879,32.715,79.102,0
1540168022.698,-43.945,22.461,28.320,12.695,-13.672,0
1540168022.702,-49.805,25.391,33.203,17.578,-33.203,0
1540168022.705,-57.617,27.344,36.621,24.902,59.570,0
1540168022.709,-67.871,20.996,37.109,21.484,43.457,0
1540168022.713,-72.266,21.484,34.668,27.832,10.254,0
1540168022.717,-80.078,23.438,29.297,28.809,24.414,0
1540168022.721,-71.777,23.438,28.320,15.137,19.043,0
1540168022.725,-77.637,24.414,30.762,14.648,9.766,0
1540168022.729,-102.051,20.020,31.250,25.391,8.789,0
1540168022.733,-104.004,21.484,30.273,28.320,6.348,0
1540168022.737,-104.492,24.902,28.809,17.578,-17.578,0
1540168022.741,-112.793,25.391,31.250,17.090,50.293,0
1540168022.745,-111.816,27.344,34.180,31.250,2.930,0
1540168022.748,-98.633,28.320,35.645,28.320,-20.996,0
1540168022.752,-99.609,27.832,34.668,19.043,28.809,0
1540168022.756,-108.398,29.297,33.691,23.926,29.297,0
1540168022.760,-104.980,30.762,32.715,24.902,27.832,0
1540168022.764,-104.492,31.738,27.344,18.555,42.969,0
1540168022.768,-106.934,28.320,27.344,11.719,61.523,0
1540168022.772,-101.074,28.809,30.762,9.277,19.043,0
1540168022.776,-97.168,31.738,33.203,13.184,12.207,0
1540168022.780,-104.004,25.391,29.297,9.766,24.414,0
1540168022.784,-101.562,23.926,22.461,10.742,2.930,0
1540168022.788,-83.984,31.738,24.902,17.090,3.418,0
1540168022.791,-76.172,31.250,26.367,11.719,24.414,0
1540168022.795,-67.383,25.879,27.344,20.996,20.996,0
1540168022.799,-56.641,26.855,28.809,27.344,61.035,0
1540168022.803,-50.293,28.320,29.785,24.414,69.824,0
1540168022.807,-40.527,27.832,29.785,23.926,29.297,0
1540168022.811,-38.086,27.344,30.273,23.438,27.832,0
1540168022.815,-43.945,25.879,30.273,32.227,59.570,0
1540168022.819,-60.547,22.461,29.297,26.367,50.781,0
1540168022.823,-72.266,23.438,31.250,21.973,67.871,0
1540168022.827,-81.543,25.391,33.691,30.273,33.691,0
1540168022.830,-88.867,24.902,30.762,31.250,-37.109,0
1540168022.834,-87.891,20.508,27.832,27.344,-2.441,0
1540168022.838,-84.961,19.531,31.738,19.531,18.555,0
1540168022.842,-102.539,24.414,30.273,18.555,-3.906,0
1540168022.846,-120.117,28.809,22.461,20.996,31.738,0
1540168022.850,-122.559,29.785,22.461,15.137,80.078,0
1540168022.854,-123.535,28.809,28.809,15.625,50.293,0
1540168022.858,-118.652,29.785,29.297,20.508,-10.254,0
1540168022.862,-111.816,33.203,26.855,24.902,28.809,0
1540168022.866,-100.586,30.273,30.273,28.320,65.918,0
1540168022.870,-89.844,29.785,36.133,28.320,65.430,0
1540168022.873,-82.520,30.273,29.785,21.484,89.355,0
1540168022.877,-84.473,34.180,19.531,19.531,76.660,0
1540168022.881,-95.703,37.109,23.926,22.949,49.805,0
1540168022.885,-99.121,35.156,30.762,23.926,8.301,0
1540168022.889,-95.215,34.180,29.297,19.043,5.371,0
1540168022.893,-100.098,30.762,28.320,17.578,40.039,0
1540168022.897,-94.238,26.855,30.762,25.391,62.988,0
1540168022.901,-82.520,28.809,32.227,27.832,22.949,0
1540168022.905,-86.426,35.645,30.762,22.461,6.836,0
1540168022.909,-85.449,36.133,23.926,20.996,21.484,0
1540168022.913,-74.219,34.180,23.926,22.949,17.090,0
1540168022.916,-73.242,29.785,27.832,17.090,78.613,0
1540168022.920,-93.750,24.902,27.344,13.672,69.824,0
1540168022.924,-102.051,28.320,27.344,17.090,47.852,0
1540168022.928,-97.656,33.203,27.344,21.484,3.418,0
1540168022.932,-95.703,34.180,28.809,25.391,-26.367,0
1540168022.936,-106.934,32.227,25.391,20.996,4.883,0
1540168022.940,-117.188,35.156,23.438,20.020,42.969,0
1540168022.944,-113.281,31.250,26.855,30.273,38.086,0
1540168022.948,-107.910,27.832,29.297,33.691,4.883,0
1540168022.952,-111.816,32.227,29.785,25.391,49.316,0
1540168022.955,-112.793,30.273,30.273,20.020,94.727,0
1540168022.959,-107.422,28.809,25.879,25.879,17.090,0
1540168022.963,-100.098,28.320,23.438,35.645,-38.574,0
1540168022.967,-93.750,23.926,24.902,32.715,2.930,0
1540168022.971,-92.285,23.926,23.438,20.996,66.406,0
1540168022.975,-84.961,19.043,25.879,17.090,60.547,0
1540168022.979,-75.195,17.090,24.414,13.672,3.418,0
1540168022.983,-63.965,21.973,19.531,6.836,29.297,0
1540168022.987,-46.387,24.414,19.531,3.906,87.891,0
1540168022.991,-50.781,23.438,21.484,7.812,91.797,0
1540168022.995,-67.383,19.531,28.809,10.742,-20.508,0
1540168022.998,-77.148,15.625,30.273,16.113,-40.527,0
1540168023.002,-78.125,16.113,27.344,19.531,29.297,0
1540168023.006,-77.148,19.043,27.832,21.484,11.719,0
1540168023.010,-82.520,24.902,27.832,24.414,-16.113,0
1540168023.014,-81.055,28.320,25.879,27.832,-8.301,0
1540168023.018,-77.637,24.414,26.367,29.297,24.902,0
1540168023.022,-70.801,27.344,26.855,25.879,97.168,0
1540168023.026,-63.965,31.738,29.785,26.855,49.316,0
1540168023.030,-66.895,27.832,32.227,26.367,24.414,0
1540168023.034,-61.523,25.391,32.227,26.855,50.781,0
1540168023.038,-51.758,26.855,33.691,27.344,3.418,0
1540168023.041,-46.387,27.344,34.668,25.879,4.883,0
1540168023.045,-41.504,25.879,28.320,20.020,-5.371,0
1540168023.049,-40.039,25.879,27.344,20.020,4.395,0
1540168023.053,-37.598,24.414,31.250,22.461,27.344,0
1540168023.057,-41.992,23.438,27.344,18.555,21.973,0
1540168023.061,-41.992,24.902,27.832,21.484,14.160,0
1540168023.065,-33.691,25.879,28.809,24.414,19.043,0
1540168023.069,-30.273,27.344,26.855,18.066,-51.270,0
1540168023.073,-31.738,25.879,20.508,10.742,40.527,0
1540168023.077,-31.250,24.414,19.043,15.625,83.496,1
1540168023.080,-26.855,25.879,24.414,22.949,-12.207,0
1540168023.084,-25.391,27.344,27.344,19.531,25.879,0
1540168023.088,-26.855,29.297,29.297,11.230,43.457,0
1540168023.092,-30.762,27.344,25.879,20.508,65.918,0
1540168023.096,-30.273,26.855,22.949,26.367,46.875,0
1540168023.100,-21.973,30.762,25.879,18.066,16.113,0
1540168023.104,-21.973,28.809,24.902,20.020,59.082,0
1540168023.108,-27.832,27.832,19.531,19.043,42.480,0
1540168023.112,-18.555,29.785,20.508,18.066,7.324,0
1540168023.116,-1.465,28.809,21.973,20.508,30.273,0
1540168023.120,8.301,27.344,23.926,21.484,15.137,0
1540168023.123,3.418,21.973,31.250,22.461,3.906,0
1540168023.127,6.348,21.973,31.738,30.762,-2.930,0
1540168023.131,17.090,29.297,28.320,38.086,45.410,0
1540168023.135,14.648,29.785,28.809,38.574,64.941,0
1540168023.139,11.719,28.809,30.273,31.738,-23.926,0
1540168023.143,5.371,25.391,25.879,25.391,-29.785,0
1540168023.147,-3.418,22.949,23.926,25.391,20.508,0
1540168023.151,-6.836,24.414,23.438,20.508,59.570,0
1540168023.155,4.395,26.367,25.879,16.113,78.125,0
1540168023.159,11.230,26.855,26.367,18.555,-34.180,0
1540168023.163,6.348,23.926,25.879,23.438,-37.109,0
1540168023.166,6.836,20.996,27.832,24.414,10.742,0
1540168023.170,21.973,23.438,26.367,19.043,18.066,0
1540168023.174,34.668,24.414,24.414,18.066,20.020,0
1540168023.178,25.879,23.438,22.949,24.902,-15.137,0
1540168023.182,31.738,25.879,22.461,35.645,13.672,0
1540168023.186,41.504,23.926,23.438,22.949,32.715,0
1540168023.190,38.574,21.973,24.902,15.625,63.477,0
1540168023.194,36.133,21.973,25.391,33.203,16.113,0
1540168023.198,39.062,23.926,25.391,30.273,12.207,0
1540168023.202,49.805,28.320,27.344,16.113,28.320,0
1540168023.205,51.758,29.785,32.227,19.043,12.695,0
1540168023.209,38.086,28.809,34.180,22.949,74.707,0
1540168023.213,35.645,29.297,30.762,20.020,77.148,0
1540168023.217,49.805,30.273,30.273,34.180,55.176,0
1540168023.221,65.430,30.762,32.227,33.203,68.848,0
1540168023.225,70.801,27.344,31.738,9.766,15.625,0
1540168023.229,79.590,27.344,32.227,15.137,12.695,0
1540168023.233,73.242,27.832,32.227,26.367,16.113,0
1540168023.237,63.965,29.297,33.203,31.738,31.250,0
1540168023.241,61.523,31.738,33.203,40.039,51.758,0
1540168023.245,38.086,29.297,27.344,35.645,69.336,0
1540168023.248,15.137,28.320,25.391,33.691,60.547,0
1540168023.252,-0.488,24.414,28.320,33.691,0.000,0
1540168023.256,-10.254,22.461,31.250,29.297,10.742,0
1540168023.260,-24.902,28.320,28.809,29.297,-30.273,0
1540168023.264,-45.898,26.367,27.832,31.250,-13.184,0
1540168023.268,-60.547,24.902,30.273,41.992,24.902,0
1540168023.272,-66.406,22.949,26.367,33.203,18.555,0
1540168023.276,-60.059,22.949,25.391,25.391,57.617,0
1540168023.280,-59.082,28.809,24.902,34.180,44.434,0
1540168023.284,-59.082,27.344,23.926,31.738,56.641,0
1540168023.288,-49.805,21.973,22.461,18.555,67.871,0
1540168023.291,-46.875,25.879,21.973,20.508,50.293,0
1540168023.295,-40.527,28.320,22.461,34.668,77.148,0
1540168023.299,-47.852,28.320,22.461,27.344,12.207,0
1540168023.303,-58.594,28.809,25.879,19.043,-22.949,0
1540168023.307,-43.945,26.367,28.320,23.438,37.109,0
1540168023.311,-34.668,24.902,29.297,30.273,11.230,0
1540168023.315,-37.109,28.809,28.320,31.250,-6.348,0
1540168023.319,-42.480,30.273,29.297,39.062,23.926,0
1540168023.323,-41.992,29.297,28.809,34.180,22.461,0
1540168023.327,-41.992,30.273,28.809,26.855,-1.465,0
1540168023.330,-41.992,33.691,32.715,33.691,-33.691,0
1540168023.334,-38.086,33.691,30.273,33.691,13.672,0
1540168023.338,-36.133,28.809,29.785,39.062,21.484,0
1540168023.342,-41.992,28.320,33.691,42.480,25.879,0
1540168023.346,-42.480,27.344,32.227,38.574,41.504,0
1540168023.350,-41.016,27.344,32.227,33.691,53.223,0
1540168023.354,-51.758,25.391,31.250,25.879,-2.930,0
1540168023.358,-54.688,26.367,29.785,24.414,-29.297,0
1540168023.362,-52.734,29.785,34.668,31.250,38.574,0
1540168023.366,-57.129,28.809,33.691,32.715,61.523,0
1540168023.370,-57.129,29.297,27.832,29.297,47.852,0
1540168023.373,-48.828,32.715,29.297,30.762,38.086,0
1540168023.377,-45.898,37.109,33.203,33.691,35.645,0
1540168023.381,-46.387,32.227,35.645,27.832,13.184,0
1540168023.385,-36.133,26.855,35.156,26.855,12.207,0
1540168023.389,-28.809,28.809,32.715,27.832,41.992,0
1540168023.393,-36.133,26.855,30.273,23.438,53.711,0
1540168023.397,-27.832,26.855,28.809,23.438,-43.945,0
1540168023.401,-18.066,30.273,31.738,21.973,-46.387,0
1540168023.405,-19.043,28.809,33.203,19.043,36.133,0
1540168023.409,-18.555,28.320,31.250,23.926,39.062,0
1540168023.413,-20.508,26.855,29.785,31.738,43.945,0
1540168023.416,-16.602,25.879,28.320,29.785,32.227,0
1540168023.420,-8.301,29.785,29.785,18.066,29.785,0
1540168023.424,1.953,31.738,32.715,16.602,21.484,0
1540168023.428,10.742,29.785,36.621,23.438,-2.930,0
1540168023.432,14.160,30.762,37.109,26.855,34.180,0
1540168023.436,20.508,33.691,35.156,23.438,104.492,0
1540168023.440,43.945,33.691,33.203,22.461,104.492,0
1540168023.444,62.988,28.320,30.762,22.949,106.934,0
1540168023.448,78.613,27.344,31.250,23.438,83.008,0
1540168023.452,91.309,29.297,37.109,24.902,44.434,0
1540168023.455,86.914,29.297,34.180,24.902,51.758,0
1540168023.459,84.961,30.762,27.344,36.133,17.578,0
1540168023.463,90.820,29.785,26.855,40.039,-8.789,0
1540168023.467,90.820,25.391,28.809,27.344,10.742,0
1540168023.471,90.332,20.996,25.879,23.926,52.734,0
1540168023.475,87.891,23.438,23.438,26.367,93.262,0
1540168023.479,77.148,28.809,20.508,19.531,71.289,0
1540168023.483,74.707,30.273,21.484,19.043,33.691,0
1540168023.487,80.566,27.344,29.297,28.320,-27.832,0
1540168023.491,83.496,27.344,33.203,19.531,-41.992,0
1540168023.495,80.078,28.809,34.668,17.090,47.363,0
1540168023.498,74.707,24.902,32.715,25.879,90.820,0
1540168023.502,73.242,24.902,27.832,19.531,42.969,0
1540168023.506,67.871,29.297,26.855,15.137,-25.391,0
1540168023.510,57.129,25.879,29.785,18.555,-22.461,0
1540168023.514,66.406,23.438,28.809,22.461,-18.066,0
1540168023.518,77.148,27.832,28.320,31.250,23.926,0
1540168023.522,88.867,28.320,32.227,31.738,23.926,0
1540168023.526,89.355,29.297,37.598,26.855,5.859,0
1540168023.530,77.637,27.832,41.992,31.250,-0.977,0
1540168023.534,76.660,23.926,37.109,37.598,9.766,0
1540168023.538,78.125,23.926,30.273,33.691,27.344,0
1540168023.541,75.684,24.414,32.227,24.902,25.391,0
1540168023.545,78.125,26.855,33.203,23.438,-10.254,0
1540168023.549,83.008,29.785,30.762,26.367,-25.879,0
1540168023.553,91.797,29.785,27.344,30.273,18.555,0
1540168023.557,100.586,27.832,33.691,30.273,47.852,0
1540168023.561,99.121,27.344,40.039,34.668,45.410,0
1540168023.565,108.887,28.809,32.715,40.039,35.156,0
1540168023.569,119.629,33.203,31.738,37.109,9.766,0
1540168023.573,106.934,29.785,33.203,26.367,34.180,0
1540168023.577,95.215,26.367,30.273,30.762,28.809,0
1540168023.580,90.820,27.832,28.320,31.738,0.000,0
1540168023.584,94.238,25.879,29.297,22.949,49.316,0
1540168023.588,98.633,23.926,28.320,11.230,67.383,0
1540168023.592,89.844,22.461,24.902,9.766,24.902,0
1540168023.596,82.031,23.438,23.438,21.484,38.086,0
1540168023.600,77.637,26.855,29.785,24.902,37.109,0
1540168023.604,78.613,24.902,37.109,25.879,9.766,0
1540168023.608,83.008,19.531,28.320,13.672,51.758,0
1540168023.612,81.543,20.020,26.855,9.766,32.227,0
1540168023.616,74.707,29.297,38.086,22.949,27.344,0
1540168023.620,67.871,25.391,33.203,14.648,77.148,0
1540168023.623,76.660,21.973,29.297,0.488,106.934,0
1540168023.627,79.102,25.391,36.133,9.766,90.820,0
1540168023.631,77.637,17.578,35.645,20.020,48.340,0
1540168023.635,89.844,20.020,31.250,23.438,49.316,0
1540168023.639,91.797,31.250,29.297,11.230,55.176,0
1540168023.643,88.867,31.738,28.809,9.277,16.602,0
1540168023.647,87.402,29.785,29.297,20.020,25.879,0
1540168023.651,77.148,28.809,30.762,19.531,69.336,0
1540168023.655,79.102,29.297,32.715,19.531,94.238,0
1540168023.659,93.262,26.855,33.203,17.578,106.934,0
1540168023.663,102.051,22.949,30.762,24.414,97.656,0
1540168023.666,104.980,20.996,29.785,28.320,56.152,0
1540168023.670,88.379,20.020,30.273,17.090,8.301,0
1540168023.674,70.801,20.020,30.762,21.973,-18.066,0
1540168023.678,68.359,18.555,27.832,34.668,0.977,0
1540168023.682,69.336,16.113,23.438,32.227,30.762,0
1540168023.686,66.406,13.672,22.461,29.297,42.480,0
1540168023.690,68.359,11.230,25.879,18.066,-12.207,0
1540168023.694,78.125,16.113,27.344,22.461,-13.184,0
1540168023.698,74.219,19.531,29.785,37.109,24.902,0
1540168023.702,59.082,15.625,32.715,41.992,5.859,0
1540168023.705,38.574,12.695,32.715,32.715,20.996,0
1540168023.709,22.461,13.672,35.156,25.879,43.457,0
1540168023.713,28.320,19.043,33.691,37.598,34.668,0
1540168023.717,26.367,16.602,26.367,31.738,40.039,0
1540168023.721,22.949,16.113,29.297,24.902,27.344,0
1540168023.725,43.457,17.578,34.180,30.273,22.461,0
1540168023.729,62.500,13.672,28.809,33.203,62.988,0
1540168023.733,72.754,13.672,27.344,31.250,99.121,0
1540168023.737,72.754,13.672,28.809,24.902,89.355,0
1540168023.741,69.336,11.719,30.762,27.344,37.109,0
1540168023.745,72.754,11.230,30.762,29.297,20.996,0
1540168023.748,86.914,11.230,29.785,34.668,27.344,0
1540168023.752,88.867,14.648,31.250,28.809,38.574,0
1540168023.756,94.238,16.113,29.297,16.113,63.477,0
1540168023.760,104.004,15.625,29.297,27.832,23.926,0
1540168023.764,104.004,16.113,31.738,28.320,30.762,0
1540168023.768,103.516,15.137,23.438,9.766,30.762,0
1540168023.772,100.586,17.090,18.555,6.348,-25.391,0
1540168023.776,101.562,14.648,21.484,10.254,-16.602,0
1540168023.780,111.816,12.207,23.438,16.602,41.504,0
1540168023.784,115.234,13.672,24.414,18.555,31.250,0
1540168023.788,116.699,11.230,27.344,21.973,3.906,0
1540168023.791,123.535,6.836,27.832,19.531,20.020,0
1540168023.795,112.793,11.230,27.344,16.602,61.523,0
1540168023.799,94.727,20.020,28.320,19.043,34.668,1
1540168023.803,98.633,11.719,29.785,14.160,-36.133,0
1540168023.807,103.027,-8.789,34.668,20.020,1.465,0
1540168023.811,105.957,-3.418,29.785,18.066,63.965,0
1540168023.815,89.355,24.414,25.391,15.625,43.945,0
1540168023.819,80.566,30.273,24.414,11.719,11.230,0
1540168023.823,90.332,25.879,26.367,14.648,-17.578,0
1540168023.827,75.684,23.926,31.738,16.602,-14.648,0
1540168023.830,68.359,23.926,28.320,9.766,41.992,0
1540168023.834,99.609,32.227,27.344,12.207,57.617,0
1540168023.838,121.094,31.738,27.344,16.113,44.434,0
1540168023.842,88.379,28.809,23.926,14.160,74.219,0
1540168023.846,73.730,25.879,29.297,17.578,35.645,0
1540168023.850,86.426,22.949,31.250,17.578,17.090,0
1540168023.854,97.168,20.020,27.344,11.719,27.832,0
1540168023.858,103.027,18.066,25.879,11.719,-8.301,0
1540168023.862,115.723,20.996,24.902,12.207,48.340,0
1540168023.866,125.977,17.578,20.020,10.742,25.879,0
1540168023.870,138.672,19.043,16.113,2.441,-32.715,0
1540168023.873,147.949,21.973,21.484,-5.371,-7.812,0
1540168023.877,134.277,19.043,24.414,6.836,4.883,0
1540168023.881,118.164,20.020,29.785,20.508,20.020,0
1540168023.885,112.793,17.578,31.250,21.484,-33.691,0
1540168023.889,123.047,13.672,23.438,18.066,-8.301,0
1540168023.893,114.258,16.602,24.414,25.391,-26.855,0
1540168023.897,103.027,19.531,29.785,34.180,-38.574,0
1540168023.901,99.121,19.531,32.227,35.156,9.766,0
1540168023.905,78.613,19.043,29.785,26.367,17.578,0
1540168023.909,83.008,18.066,27.832,18.066,7.812,0
1540168023.913,91.797,18.555,28.320,22.949,6.348,0
1540168023.916,99.609,20.508,33.691,33.203,14.648,0
1540168023.920,86.914,24.902,35.156,38.574,-13.184,0
1540168023.924,62.012,22.461,31.250,34.180,18.555,0
1540168023.928,63.965,19.043,32.227,23.926,8.301,0
1540168023.932,73.730,25.391,31.250,24.902,13.672,0
1540168023.936,80.566,28.320,33.691,30.273,42.480,0
1540168023.940,84.473,24.902,32.715,37.109,-5.371,0
1540168023.944,81.543,25.391,23.438,34.668,3.418,0
1540168023.948,81.055,23.926,21.484,11.719,13.184,0
1540168023.952,84.473,19.043,23.438,2.930,22.949,0
1540168023.955,87.891,17.578,23.438,2.930,63.965,0
1540168023.959,91.797,18.555,21.973,12.695,54.199,0
1540168023.963,86.914,15.625,24.902,28.809,-17.578,0
1540168023.967,95.215,19.531,28.320,28.320,-15.137,0
1540168023.971,104.492,22.949,28.320,23.926,-6.348,0
1540168023.975,84.961,15.625,28.809,31.738,-18.066,0
1540168023.979,83.984,16.602,32.227,45.898,51.758,0
1540168023.983,86.426,22.949,31.738,39.551,58.105,0
1540168023.987,83.008,24.902,27.832,25.879,61.523,0
1540168023.991,93.750,26.855,28.320,30.273,78.125,0
1540168023.995,79.590,26.367,28.320,29.297,48.340,0
1540168023.998,77.148,26.367,27.832,21.484,18.555,0
1540168024.002,88.379,24.902,26.367,22.461,24.414,0
1540168024.006,88.867,22.461,26.855,22.949,35.645,0
1540168024.010,83.984,21.973,27.344,25.391,62.012,0
1540168024.014,79.102,22.461,27.344,21.973,69.336,0
1540168024.018,63.477,26.367,27.344,13.672,26.855,0
1540168024.022,62.988,23.438,24.414,18.555,50.293,0
1540168024.026,80.078,26.855,23.926,13.672,84.961,0
1540168024.030,73.242,28.809,26.367,11.719,22.949,0
1540168024.034,65.918,24.902,29.785,23.926,5.371,0
1540168024.038,61.523,24.414,28.809,19.043,18.066,0
1540168024.041,63.965,24.902,26.367,13.672,54.688,0
1540168024.045,62.012,23.438,25.879,22.949,95.215,0
1540168024.049,27.832,22.461,22.461,25.391,75.195,0
1540168024.053,21.484,23.438,24.902,21.973,45.410,0
1540168024.057,19.043,27.344,29.785,26.855,13.184,0
1540168024.061,-14.648,29.785,27.832,31.738,0.488,0
1540168024.065,-39.062,24.414,25.879,25.391,-0.977,0
1540168024.069,-87.402,19.531,30.273,22.949,33.691,0
1540168024.073,-101.074,22.949,31.250,23.438,28.809,0
1540168024.077,-87.402,28.320,28.809,22.949,-35.156,0
1540168024.080,-98.633,28.320,28.320,29.785,32.715,0
1540168024.084,-111.816,27.832,31.250,27.344,43.457,0
1540168024.088,-139.648,29.297,34.668,21.484,7.812,0
1540168024.092,-150.879,33.691,34.668,34.180,9.277,0
1540168024.096,-148.926,35.156,34.668,32.715,-20.996,0
1540168024.100,-162.598,33.691,36.133,28.320,11.719,0
1540168024.104,-186.035,30.762,36.133,32.227,59.570,0
1540168024.108,-202.637,21.973,30.273,18.555,98.633,0
1540168024.112,-212.402,25.879,25.391,15.625,19.043,0
1540168024.116,-226.562,29.785,23.926,33.691,43.945,0
1540168024.120,-229.980,26.367,20.996,45.410,84.473,0
1540168024.123,-230.957,21.484,27.344,26.367,-7.324,0
1540168024.127,-229.980,22.461,30.762,20.020,-11.719,0
1540168024.131,-229.004,30.273,30.762,31.738,13.672,0
1540168024.135,-221.191,26.855,29.297,23.438,-15.137,0
1540168024.139,-227.051,20.508,26.855,18.555,-38.086,0
1540168024.143,-237.793,26.367,28.809,31.738,-16.113,0
1540168024.147,-243.164,21.973,28.320,30.762,11.230,0
1540168024.151,-244.629,20.508,28.320,26.855,40.039,0
1540168024.155,-235.352,26.855,29.297,34.668,40.527,0
1540168024.159,-226.562,24.902,23.438,36.133,26.367,0
1540168024.163,-234.375,22.949,22.949,34.180,18.555,0
1540168024.166,-251.465,24.902,29.297,30.273,59.082,0
1540168024.170,-247.559,24.414,30.762,17.578,51.270,0
1540168024.174,-246.582,25.879,31.250,22.949,30.762,0
1540168024.178,-261.719,23.926,32.715,27.832,80.566,0
1540168024.182,-266.602,17.090,31.738,28.809,64.941,0
1540168024.186,-273.438,23.926,32.227,31.738,54.199,0
1540168024.190,-289.062,30.273,33.203,22.949,42.480,0
1540168024.194,-291.992,23.926,29.785,18.555,1.953,0
1540168024.198,-285.156,26.855,22.949,29.297,-8.301,0
1540168024.202,-282.715,27.832,25.391,30.762,10.742,0
1540168024.205,-285.645,24.414,27.344,17.578,5.371,0
1540168024.209,-297.363,18.555,25.879,11.230,-2.441,0
1540168024.213,-301.758,20.508,25.879,14.160,2.441,0
1540168024.217,-290.527,28.320,25.391,16.602,-3.418,0
1540168024.221,-262.695,28.809,22.461,12.695,-3.906,0
1540168024.225,-243.652,29.785,22.461,9.277,72.266,0
1540168024.229,-245.605,27.344,21.973,14.160,49.805,0
1540168024.233,-233.887,27.832,18.555,25.879,-21.484,0
1540168024.237,-221.680,29.785,22.461,28.809,-4.395,0
1540168024.241,-208.496,23.926,29.785,26.855,19.531,0
1540168024.245,-192.383,23.926,28.809,30.273,14.160,0
1540168024.248,-194.824,27.832,26.367,21.484,12.695,0
1540168024.252,-184.570,29.785,28.320,2.930,44.922,0
1540168024.256,-169.922,30.762,29.785,-2.441,28.809,0
1540168024.260,-170.898,29.785,25.391,10.254,50.781,0
1540168024.264,-157.715,25.391,22.461,19.531,46.387,0
1540168024.268,-143.555,24.414,25.391,11.230,20.508,0
1540168024.272,-141.113,24.414,24.414,5.371,2.441,0
1540168024.276,-129.883,27.832,21.973,4.883,-29.297,0
1540168024.280,-125.488,29.297,21.973,19.531,-4.395,0
1540168024.284,-143.066,25.391,21.973,29.785,24.414,0
1540168024.288,-133.301,26.855,20.508,18.066,33.691,0
1540168024.291,-120.117,25.879,21.973,16.602,24.414,0
1540168024.295,-142.578,24.414,25.391,15.625,14.160,0
1540168024.299,-150.879,29.785,26.367,10.254,-21.484,0
1540168024.303,-147.461,35.645,28.320,14.648,-13.672,0
1540168024.307,-154.785,34.180,23.438,25.879,24.414,0
1540168024.311,-156.250,29.297,13.672,32.715,79.102,0
1540168024.315,-144.043,28.320,20.020,37.598,38.574,0
1540168024.319,-140.137,26.855,29.297,29.297,-3.418,0
1540168024.323,-130.371,26.367,31.738,19.531,81.055,0
1540168024.327,-133.789,27.832,29.785,23.926,99.121,0
1540168024.330,-141.113,23.438,32.227,22.949,75.195,0
1540168024.334,-133.301,21.484,34.180,28.320,108.398,0
1540168024.338,-127.441,21.973,30.762,21.973,87.402,0
1540168024.342,-120.117,21.973,29.785,12.207,42.969,0
1540168024.346,-133.301,18.555,26.367,23.926,50.781,0
1540168024.350,-127.930,20.996,24.902,24.902,84.473,0
1540168024.354,-107.422,28.809,27.344,21.973,2.441,0
1540168024.358,-104.980,25.391,25.879,19.531,-27.344,1
1540168024.362,-106.445,21.973,24.414,12.207,39.551,0
1540168024.366,-106.445,18.066,23.438,15.625,22.949,0
1540168024.370,-104.492,16.602,22.949,13.672,23.926,0
1540168024.373,-99.609,23.438,17.578,12.207,23.926,0
1540168024.377,-92.285,21.484,14.648,23.438,-11.719,0
1540168024.381,-91.309,14.648,20.508,15.625,-24.902,0
1540168024.385,-89.355,15.137,22.949,25.879,20.020,0
1540168024.389,-82.031,20.020,24.902,35.156,24.414,0
1540168024.393,-78.125,25.879,23.438,12.695,40.527,0
1540168024.397,-78.125,28.320,18.555,12.207,17.578,0
1540168024.401,-85.938,26.855,19.043,14.160,25.879,0
1540168024.405,-82.520,28.809,24.902,18.066,54.199,0
1540168024.409,-72.754,26.855,27.832,24.902,-21.484,0
1540168024.413,-79.590,22.461,24.414,21.973,-12.207,0
1540168024.416,-78.125,26.855,22.949,23.438,1.465,0
1540168024.420,-68.848,28.809,24.902,31.738,-20.020,0
1540168024.424,-73.730,28.809,25.391,39.062,50.781,0
1540168024.428,-73.730,30.762,26.367,29.785,15.625,0
1540168024.432,-71.289,24.902,24.902,25.391,9.277,0
1540168024.436,-50.781,21.973,25.879,26.855,40.527,0
1540168024.440,-7.812,25.391,26.367,29.785,-5.371,0
1540168024.444,-6.348,23.926,22.949,25.391,7.812,0
1540168024.448,2.930,22.949,23.926,15.625,39.062,0
1540168024.452,46.875,22.461,23.926,18.066,-3.906,0
1540168024.455,56.152,19.043,23.926,21.973,30.273,0
1540168024.459,44.434,18.066,30.273,23.438,48.340,0
1540168024.463,29.297,15.137,29.785,31.738,7.812,0
1540168024.467,11.719,13.184,25.879,27.832,9.277,0
1540168024.471,3.418,17.090,27.832,16.113,53.711,0
1540168024.475,-3.906,22.949,28.320,25.879,100.098,0
1540168024.479,-9.766,24.902,25.879,34.180,90.820,0
1540168024.483,-11.230,23.438,23.438,22.949,96.191,0
1540168024.487,-37.598,21.484,25.879,22.461,34.668,0
1540168024.491,-54.688,23.438,23.926,25.391,38.574,0
1540168024.495,-50.781,24.902,24.902,27.832,130.859,0
1540168024.498,-61.035,26.367,27.344,32.227,70.801,0
1540168024.502,-67.383,25.879,27.344,23.438,45.410,0
1540168024.506,-77.637,24.414,24.414,16.113,8.301,0
1540168024.510,-87.402,25.879,23.926,26.855,-36.133,0
1540168024.514,-78.613,26.367,21.973,27.344,42.480,0
1540168024.518,-73.242,22.949,18.555,23.438,36.621,0
1540168024.522,-63.965,20.996,21.973,41.504,-27.832,0
1540168024.526,-62.988,22.461,22.461,36.621,-24.414,0
1540168024.530,-67.871,26.367,20.996,21.973,23.438,0
1540168024.534,-68.848,29.297,20.508,25.879,23.438,0
1540168024.538,-83.496,28.320,23.438,26.855,18.555,0
1540168024.541,-88.867,28.809,26.367,33.203,40.039,0
1540168024.545,-74.707,28.809,24.902,47.363,102.051,0
1540168024.549,-62.012,26.855,23.438,47.852,74.707,0
1540168024.553,-34.668,26.367,21.973,40.039,56.641,0
1540168024.557,-30.762,25.391,20.996,35.156,5.859,0
1540168024.561,-46.875,26.367,23.926,24.414,-41.992,0
1540168024.565,-63.965,30.762,25.391,26.367,0.000,0
1540168024.569,-121.582,28.809,23.438,24.902,41.016,0
1540168024.573,-157.227,25.391,22.461,25.879,51.270,0
1540168024.577,-171.875,23.926,26.367,40.039,28.809,0
1540168024.580,-187.500,23.438,28.320,47.363,28.320,0
1540168024.584,-206.055,22.461,28.809,38.086,-25.879,0
1540168024.588,-223.145,20.020,27.344,24.902,-18.066,0
1540168024.592,-236.328,23.926,27.832,33.203,59.570,0
1540168024.596,-256.836,23.926,27.832,35.645,12.207,0
1540168024.600,-274.902,19.043,27.832,30.273,-17.090,0
1540168024.604,-284.668,21.484,32.715,31.738,26.855,0
1540168024.608,-276.855,23.926,33.203,22.949,50.781,0
1540168024.612,-270.996,26.855,32.715,26.367,23.438,0
1540168024.616,-270.996,24.414,32.227,28.320,-34.668,0
1540168024.620,-265.137,17.090,32.227,33.691,0.977,0
1540168024.623,-239.258,14.648,31.250,31.250,53.711,0
1540168024.627,-217.285,16.113,27.344,25.391,36.621,0
1540168024.631,-212.402,19.531,26.855,31.250,76.172,0
1540168024.635,-202.148,20.996,26.855,28.809,43.945,0
1540168024.639,-187.012,23.438,27.832,10.742,24.902,0
1540168024.643,-189.453,21.973,27.344,2.930,33.691,0
1540168024.647,-186.035,19.531,25.391,13.672,32.715,0
1540168024.651,-149.902,20.020,24.414,13.672,31.738,0
1540168024.655,-111.328,22.461,22.461,15.625,-1.465,0
1540168024.659,-91.309,22.949,22.949,15.137,-10.742,0
1540168024.663,-53.223,25.391,24.414,20.508,11.719,0
1540168024.666,-28.320,24.414,18.555,23.438,37.598,0
1540168024.670,-28.809,21.484,19.043,18.555,32.227,0
1540168024.674,-21.484,21.484,26.367,19.531,33.691,0
1540168024.678,-16.602,20.020,26.367,25.391,39.062,0
1540168024.682,-4.395,22.949,29.297,22.949,4.883,0
1540168024.686,10.254,22.949,29.785,24.902,20.996,0
1540168024.690,16.113,17.578,26.855,27.832,26.367,0
1540168024.694,27.344,17.578,22.461,17.090,37.109,0
1540168024.698,39.551,19.531,17.578,17.090,18.555,0
1540168024.702,42.969,19.531,21.973,21.973,-8.301,0
1540168024.705,44.922,20.020,27.344,23.438,16.113,0
1540168024.709,47.363,21.484,25.879,30.762,9.277,0
1540168024.713,56.152,21.973,26.367,40.527,26.855,0
1540168024.717,61.523,22.461,30.762,56.152,59.570,0
1540168024.721,66.895,23.926,31.738,39.062,40.039,0
1540168024.725,62.500,20.996,32.715,23.438,11.719,0
1540168024.729,62.988,20.996,34.668,33.691,-9.277,0
1540168024.733,79.102,27.832,30.273,39.551,15.137,0
1540168024.737,81.055,31.738,29.297,36.133,41.504,0
1540168024.741,71.777,26.855,30.273,33.203,14.648,0
1540168024.745,73.730,26.855,33.203,42.480,-13.184,0
1540168024.748,72.754,34.180,37.598,41.504,4.395,0
1540168024.752,69.824,32.227,37.598,49.805,25.879,0
1540168024.756,82.031,29.297,33.691,44.434,30.273,0
1540168024.760,94.238,30.762,33.203,40.039,13.184,0
1540168024.764,93.262,29.297,32.715,48.340,-21.973,0
1540168024.768,55.664,27.344,28.809,42.969,27.832,0
1540168024.772,21.973,27.344,31.738,34.668,77.637,0
1540168024.776,20.020,28.320,35.645,34.668,74.219,0
