timestamps,TP9,AF7,AF8,TP10,Right AUX,Marker
1540168152.233,31.738,6.836,14.648,21.484,63.477,0
1540168152.237,21.973,11.230,16.602,30.273,39.551,0
1540168152.241,32.227,6.348,17.090,32.715,-14.160,0
1540168152.245,48.340,-0.977,9.766,46.875,4.395,0
1540168152.248,45.898,5.859,0.000,52.734,-37.109,0
1540168152.252,32.227,7.812,2.441,37.598,20.020,0
1540168152.256,33.691,11.230,12.207,47.852,75.195,0
1540168152.260,42.969,19.531,17.090,58.105,70.801,0
1540168152.264,52.246,17.090,18.555,61.523,51.758,0
1540168152.268,52.734,13.672,13.672,55.176,36.133,0
1540168152.272,56.152,11.719,17.090,46.387,100.098,0
1540168152.276,68.359,16.113,22.461,56.152,96.191,0
1540168152.280,64.453,20.020,18.555,60.059,41.504,0
1540168152.284,47.363,14.160,19.531,57.617,-38.086,0
1540168152.288,41.016,9.766,18.555,54.688,-8.789,0
1540168152.291,45.410,8.301,5.371,53.223,-34.668,0
1540168152.295,46.387,7.812,2.930,52.246,-51.758,0
1540168152.299,54.688,15.137,21.484,49.805,24.902,0
1540168152.303,61.035,19.531,36.621,60.547,6.348,0
1540168152.307,70.312,19.043,35.645,66.406,-15.137,0
1540168152.311,73.242,26.367,28.809,63.477,41.992,0
1540168152.315,69.336,28.320,20.020,64.941,0.000,0
1540168152.319,64.941,25.391,22.461,59.082,22.461,0
1540168152.323,39.062,25.391,20.508,35.645,70.801,0
1540168152.327,35.156,21.973,16.602,37.109,4.883,0
1540168152.330,50.781,15.137,14.648,39.062,16.602,0
1540168152.334,41.992,18.066,8.789,20.020,22.949,0
1540168152.338,33.691,25.879,2.930,17.578,-30.762,0
1540168152.342,39.062,26.855,-0.977,20.996,-13.672,0
1540168152.346,40.527,21.484,3.418,18.066,-29.297,0
1540168152.350,35.156,18.555,10.254,12.207,-40.039,0
1540168152.354,35.645,19.043,9.766,14.160,62.500,0
1540168152.358,37.598,13.672,12.207,30.762,70.801,0
1540168152.362,36.133,13.184,12.695,28.320,21.484,0
1540168152.366,41.016,16.113,10.742,25.879,40.039,0
1540168152.370,39.551,6.348,2.441,39.551,22.461,0
1540168152.373,21.973,-0.977,4.883,25.879,53.711,0
1540168152.377,20.996,8.301,27.344,17.578,24.902,0
1540168152.381,23.438,15.137,24.414,16.113,-18.555,0
1540168152.385,11.719,20.508,13.672,19.531,-5.371,0
1540168152.389,8.789,22.949,8.301,22.461,-2.930,0
1540168152.393,32.227,28.320,9.277,29.785,-7.324,0
1540168152.397,45.898,21.484,9.766,26.855,12.695,0
1540168152.401,37.598,13.184,9.277,20.996,40.527,0
1540168152.405,21.973,4.883,11.719,23.926,32.715,0
1540168152.409,21.973,-4.883,9.277,26.367,39.062,0
1540168152.413,36.621,10.254,0.488,35.645,38.086,0
1540168152.416,34.180,20.508,0.488,35.156,43.457,0
1540168152.420,21.973,26.367,18.066,36.621,65.918,0
1540168152.424,21.973,25.879,9.766,41.992,71.289,0
1540168152.428,31.250,18.066,9.766,31.250,74.707,0
1540168152.432,35.156,23.926,34.668,18.555,71.777,0
1540168152.436,29.785,25.391,26.367,14.648,30.273,0
1540168152.440,30.762,24.902,17.090,27.832,-19.531,0
1540168152.444,32.227,27.832,19.043,31.738,6.836,0
1540168152.448,43.457,-4.883,8.789,39.551,29.785,0
1540168152.452,40.039,-16.113,-1.465,47.363,17.578,0
1540168152.455,16.602,19.043,13.184,30.273,24.414,0
1540168152.459,15.625,26.367,20.508,27.344,-6.836,0
1540168152.463,30.273,29.785,9.277,29.297,2.441,1
1540168152.467,38.086,27.832,17.090,30.762,11.230,0
1540168152.471,34.180,9.277,20.996,31.738,-14.160,0
1540168152.475,33.691,7.324,9.277,24.414,59.082,0
1540168152.479,46.875,24.414,6.348,25.391,39.062,0
1540168152.483,56.641,25.391,0.000,11.230,-3.418,0
1540168152.487,48.828,22.949,9.277,2.441,-16.602,0
1540168152.491,41.504,24.902,19.531,7.812,53.223,0
1540168152.495,42.969,27.832,16.602,8.789,91.309,0
1540168152.498,54.199,26.855,12.695,20.508,21.484,0
1540168152.502,50.781,24.902,10.742,20.996,55.664,0
1540168152.506,23.926,25.879,1.465,9.766,65.918,0
1540168152.510,19.531,23.926,3.906,14.160,18.066,0
1540168152.514,30.762,22.949,10.742,18.066,-8.789,0
1540168152.518,37.109,23.438,8.301,30.273,-35.645,0
1540168152.522,24.902,17.090,17.090,34.668,-16.602,0
1540168152.526,8.301,11.230,18.066,15.137,-33.691,0
1540168152.530,10.254,6.836,10.254,9.277,-17.090,0
1540168152.534,9.277,-1.953,10.254,13.672,33.691,0
1540168152.538,6.836,1.953,19.531,22.461,41.992,0
1540168152.541,11.719,5.859,22.949,23.438,38.574,0
1540168152.545,21.484,1.465,16.602,21.484,26.367,0
1540168152.549,24.414,0.000,19.531,24.902,58.594,0
1540168152.553,14.160,6.348,27.832,29.785,37.598,0
1540168152.557,10.254,14.648,24.902,30.273,-12.695,0
1540168152.561,17.578,17.090,22.461,36.621,16.602,0
1540168152.565,20.996,11.719,18.066,33.691,32.715,0
1540168152.569,16.113,13.184,13.672,26.367,31.738,0
1540168152.573,16.602,13.672,16.602,27.832,31.738,0
1540168152.577,30.762,16.113,7.324,36.621,47.363,0
1540168152.580,47.363,25.879,0.488,46.875,13.672,0
1540168152.584,42.480,16.113,19.043,47.363,-1.953,0
1540168152.588,21.973,7.324,27.832,45.410,51.758,0
1540168152.592,22.461,13.184,22.461,42.480,76.172,0
1540168152.596,36.621,21.973,21.973,32.715,32.715,0
1540168152.600,34.668,22.461,30.273,29.297,13.184,0
1540168152.604,32.227,20.996,29.785,42.480,71.289,0
1540168152.608,34.668,23.926,22.949,42.480,78.125,0
1540168152.612,47.363,21.484,10.254,38.574,36.621,0
1540168152.616,58.105,14.160,13.184,37.109,-16.113,0
1540168152.620,36.621,13.672,16.602,34.668,-9.277,0
1540168152.623,32.227,19.043,7.812,49.316,55.664,0
1540168152.627,41.992,24.902,20.020,56.152,52.246,0
1540168152.631,33.203,35.156,28.809,27.344,20.996,0
1540168152.635,27.344,36.621,32.227,12.695,-0.977,0
1540168152.639,29.297,38.086,20.508,23.926,8.789,0
1540168152.643,31.250,29.785,18.555,22.461,38.574,0
1540168152.647,40.039,24.414,21.484,22.461,45.898,0
1540168152.651,43.457,26.367,10.254,27.344,45.898,0
1540168152.655,41.504,23.438,16.113,32.715,38.086,0
1540168152.659,42.969,22.461,20.020,35.645,72.754,0
1540168152.663,53.711,20.996,22.461,40.039,40.039,0
1540168152.666,68.848,20.020,26.855,52.246,37.598,0
1540168152.670,61.523,20.996,25.391,48.828,79.102,0
1540168152.674,50.293,21.484,17.090,40.527,60.547,0
1540168152.678,55.664,17.578,15.625,40.527,47.363,0
1540168152.682,59.570,17.578,8.789,39.551,29.785,0
1540168152.686,51.758,21.484,-1.465,45.410,53.711,0
1540168152.690,44.434,21.973,8.301,33.691,20.996,0
1540168152.694,54.199,23.926,21.973,37.598,11.719,0
1540168152.698,53.711,18.066,24.902,43.945,51.758,0
1540168152.702,48.340,20.020,10.254,32.227,36.133,0
1540168152.705,50.781,28.320,-1.953,28.320,54.688,0
1540168152.709,52.734,22.461,9.277,30.762,47.363,0
1540168152.713,42.969,27.344,28.809,27.344,2.930,0
1540168152.717,28.809,29.785,25.391,23.926,-19.531,0
1540168152.721,28.809,26.855,11.230,30.273,-10.742,0
1540168152.725,29.785,30.273,13.184,27.344,41.016,0
1540168152.729,31.250,22.949,7.324,27.344,56.641,0
1540168152.733,33.203,21.484,-2.930,22.949,12.695,0
1540168152.737,22.461,25.879,7.812,20.020,14.648,0
1540168152.741,16.113,17.578,19.531,20.020,74.707,0
1540168152.745,23.926,14.648,12.695,24.414,55.664,0
1540168152.748,31.738,20.508,15.137,28.809,-41.016,0
1540168152.752,20.508,19.531,9.277,17.090,-10.254,0
1540168152.756,13.184,14.160,2.930,23.926,12.695,0
1540168152.760,27.344,12.207,7.812,33.691,0.488,0
1540168152.764,41.016,21.973,7.812,21.973,20.508,0
1540168152.768,31.738,23.926,12.695,16.602,-29.297,0
1540168152.772,21.484,18.555,9.277,26.855,10.254,0
1540168152.776,30.273,21.484,5.859,36.621,92.285,0
1540168152.780,38.574,21.484,13.672,30.762,13.672,0
1540168152.784,35.645,16.602,24.902,22.949,15.625,0
1540168152.788,20.996,4.883,28.320,27.344,65.430,0
1540168152.791,13.184,4.395,15.625,32.227,47.363,0
1540168152.795,23.926,14.160,12.207,32.715,33.691,0
1540168152.799,23.926,20.996,18.555,35.156,15.625,0
1540168152.803,19.043,27.344,16.113,32.227,45.410,0
1540168152.807,20.996,27.344,11.719,26.367,19.531,0
1540168152.811,27.832,26.855,13.672,31.250,6.836,0
1540168152.815,37.598,28.320,10.742,41.992,44.922,0
1540168152.819,32.227,25.391,12.207,33.691,17.578,0
1540168152.823,25.879,25.391,18.066,19.531,36.621,0
1540168152.827,35.156,26.855,15.625,24.902,62.988,0
1540168152.830,46.875,21.973,8.789,36.621,-0.977,0
1540168152.834,39.551,15.625,7.812,35.645,-44.922,0
1540168152.838,26.855,20.020,11.230,30.273,4.883,0
1540168152.842,20.020,24.902,9.766,20.020,38.574,0
1540168152.846,27.344,23.926,2.930,3.906,34.668,0
1540168152.850,47.852,29.297,1.953,12.207,69.824,0
1540168152.854,46.387,26.367,6.348,19.043,40.039,0
1540168152.858,33.691,24.902,8.789,23.438,69.336,0
1540168152.862,33.691,28.320,5.859,34.180,104.004,0
1540168152.866,46.875,20.996,6.836,41.504,62.500,0
1540168152.870,40.527,19.043,5.371,40.039,17.090,0
1540168152.873,37.598,26.367,-8.789,40.527,-15.625,0
1540168152.877,51.270,29.297,-1.465,52.246,53.223,0
1540168152.881,56.152,28.320,6.836,48.340,27.832,0
1540168152.885,51.270,32.227,6.348,42.480,-24.902,0
1540168152.889,44.922,31.738,10.254,41.016,6.836,0
1540168152.893,49.316,29.785,7.324,43.945,18.066,0
1540168152.897,59.570,29.297,0.000,53.711,25.391,0
1540168152.901,58.594,25.879,9.277,50.781,1.465,0
1540168152.905,48.828,27.832,18.555,46.387,49.316,0
1540168152.909,53.711,31.250,20.508,52.246,61.523,0
1540168152.913,60.547,29.785,17.090,50.781,14.160,0
1540168152.916,59.570,28.320,10.254,48.340,-12.695,0
1540168152.920,59.570,26.367,10.742,54.199,-54.688,0
1540168152.924,54.199,21.973,21.973,46.875,-44.434,0
1540168152.928,55.664,28.320,21.484,38.574,-55.176,0
1540168152.932,61.523,25.391,19.531,43.945,-28.809,0
1540168152.936,46.387,16.113,17.578,45.410,6.348,0
1540168152.940,35.156,20.020,5.371,36.621,-23.926,0
1540168152.944,42.480,20.508,3.418,37.109,-2.441,0
1540168152.948,44.434,19.531,5.371,33.691,32.715,0
1540168152.952,37.109,23.926,6.836,26.855,51.758,0
1540168152.955,32.715,23.438,13.184,31.738,28.809,0
1540168152.959,40.039,23.926,11.230,34.180,36.621,0
1540168152.963,48.828,27.832,13.184,30.273,55.664,0
1540168152.967,49.805,28.809,11.230,31.250,-5.371,0
1540168152.971,39.551,22.461,1.953,34.180,-12.695,0
1540168152.975,36.133,19.531,13.672,35.156,59.082,0
1540168152.979,52.246,23.926,18.555,34.668,73.730,0
1540168152.983,53.711,25.879,16.602,37.598,48.340,0
1540168152.987,38.574,22.949,19.043,41.504,23.926,0
1540168152.991,36.621,21.973,17.578,39.551,32.227,0
1540168152.995,44.434,16.602,11.230,41.504,90.820,0
1540168152.998,45.898,10.742,9.277,36.133,55.664,0
1540168153.002,34.180,15.137,12.695,24.414,3.906,0
1540168153.006,28.320,20.996,5.371,22.949,1.953,0
1540168153.010,32.227,20.020,1.465,31.250,-23.438,0
1540168153.014,34.668,16.602,12.207,37.109,1.953,0
1540168153.018,31.250,13.184,13.184,34.668,40.527,0
1540168153.022,32.227,13.184,9.277,27.832,57.617,0
1540168153.026,30.762,17.090,13.184,31.738,-1.953,0
1540168153.030,28.809,14.648,11.719,36.133,-42.969,0
1540168153.034,31.250,14.160,11.230,32.227,22.461,0
1540168153.038,22.461,16.113,15.625,31.738,12.207,0
1540168153.041,23.438,16.602,15.625,38.574,11.230,0
1540168153.045,30.762,20.508,15.137,37.109,33.691,0
1540168153.049,27.344,21.973,9.766,31.738,53.223,0
1540168153.053,26.855,20.020,6.836,34.180,64.453,0
1540168153.057,25.391,22.461,13.184,30.762,63.477,0
1540168153.061,30.273,24.414,12.207,33.203,60.547,0
1540168153.065,41.016,25.879,10.742,37.598,41.504,0
1540168153.069,33.691,27.832,10.742,31.738,12.695,0
1540168153.073,23.438,24.414,12.695,36.621,30.273,0
1540168153.077,32.715,22.949,16.113,34.180,78.613,0
1540168153.080,46.387,24.902,22.461,25.391,39.062,0
1540168153.084,36.621,22.461,25.391,22.461,-21.484,0
1540168153.088,36.133,20.508,24.902,24.414,10.742,0
1540168153.092,38.086,24.902,21.973,30.762,50.293,0
1540168153.096,34.180,20.020,15.625,36.133,9.766,0
1540168153.100,34.668,17.090,19.043,31.738,11.230,0
1540168153.104,25.391,20.996,24.902,21.973,-9.766,0
1540168153.108,24.902,23.926,22.949,19.043,-10.742,0
1540168153.112,26.855,26.367,12.695,22.949,34.668,0
1540168153.116,26.855,29.785,7.324,18.555,23.926,1
1540168153.120,24.414,33.203,18.555,18.555,17.090,0
1540168153.123,18.066,33.691,21.973,22.461,-3.906,0
1540168153.127,27.344,32.715,16.113,23.438,-39.551,0
1540168153.131,41.016,33.203,2.441,18.066,-27.344,0
1540168153.135,40.527,33.203,-1.465,7.812,7.324,0
1540168153.139,39.062,29.785,22.461,-0.488,2.930,0
1540168153.143,46.875,30.762,25.879,0.488,-8.301,0
1540168153.147,51.758,34.180,13.672,5.859,-2.441,0
1540168153.151,40.527,31.250,11.719,4.883,20.020,0
1540168153.155,28.809,25.879,19.043,7.812,68.359,0
1540168153.159,26.855,25.879,22.461,15.137,47.852,0
1540168153.163,25.879,25.879,15.137,19.531,-10.742,0
1540168153.166,23.438,26.367,11.719,23.926,66.406,0
1540168153.170,18.066,25.879,6.836,25.391,80.566,0
1540168153.174,11.230,20.996,7.812,27.344,34.180,0
1540168153.178,20.020,22.949,25.391,29.785,25.879,0
1540168153.182,33.203,27.344,25.391,22.949,38.574,0
1540168153.186,20.996,28.809,10.254,20.508,19.043,0
1540168153.190,12.695,27.832,9.277,16.602,14.160,0
1540168153.194,23.438,20.996,18.555,19.531,44.922,0
1540168153.198,30.273,24.414,24.902,22.949,-20.020,0
1540168153.202,22.949,33.691,28.320,16.113,20.508,0
1540168153.205,14.160,33.691,33.203,17.090,26.367,0
1540168153.209,13.184,29.297,29.785,19.043,-46.875,0
1540168153.213,17.090,33.203,25.391,18.555,8.301,0
1540168153.217,18.066,34.180,20.020,16.602,58.594,0
1540168153.221,14.648,27.344,19.531,20.996,74.219,0
1540168153.225,21.484,28.809,25.879,24.902,47.852,0
1540168153.229,30.762,28.320,20.508,21.484,27.344,0
1540168153.233,33.203,26.855,16.602,22.949,72.754,0
1540168153.237,29.785,31.250,5.859,30.273,74.219,0
1540168153.241,25.879,28.809,8.301,36.133,28.320,0
1540168153.245,21.973,22.949,23.438,30.273,9.277,0
1540168153.248,19.531,20.508,26.855,15.137,17.578,0
1540168153.252,21.973,23.926,26.367,17.578,20.508,0
1540168153.256,20.508,22.949,17.578,22.949,44.922,0
1540168153.260,29.785,22.461,16.602,31.250,25.391,0
1540168153.264,35.156,28.320,19.531,28.809,24.902,0
1540168153.268,30.273,31.250,16.113,25.879,24.902,0
1540168153.272,30.762,32.227,15.137,32.715,2.930,0
1540168153.276,33.203,30.762,12.207,28.320,-10.254,0
1540168153.280,38.574,26.855,18.066,27.832,27.344,0
1540168153.284,36.621,28.809,18.555,27.832,23.438,0
1540168153.288,25.879,26.855,16.113,18.066,30.762,0
1540168153.291,27.344,24.414,9.766,24.414,14.160,0
1540168153.295,38.086,25.391,1.465,34.668,19.043,0
1540168153.299,41.504,22.949,21.973,30.273,-11.230,0
1540168153.303,36.133,27.344,37.598,26.855,2.441,0
1540168153.307,32.715,29.297,33.203,32.227,50.293,0
1540168153.311,37.598,27.344,30.762,39.062,13.184,0
1540168153.315,46.387,22.949,27.832,28.320,40.527,0
1540168153.319,40.039,18.066,20.508,23.438,37.598,0
1540168153.323,30.273,20.020,20.508,24.414,17.090,0
1540168153.327,36.133,18.066,13.184,25.391,51.270,0
1540168153.330,46.387,18.555,5.371,35.156,53.711,0
1540168153.334,42.480,23.438,13.672,28.320,49.316,0
1540168153.338,29.297,22.461,30.273,18.066,38.086,0
1540168153.342,23.438,17.090,26.855,20.020,25.391,0
1540168153.346,31.738,22.949,16.113,26.367,0.000,0
1540168153.350,35.156,27.832,16.602,27.344,7.324,0
1540168153.354,27.832,26.367,14.160,25.391,46.387,0
1540168153.358,27.344,29.297,19.531,32.715,8.789,0
1540168153.362,30.762,32.227,15.137,37.109,-8.301,0
1540168153.366,38.574,33.203,5.371,29.297,66.406,0
1540168153.370,37.109,30.762,5.859,26.367,117.676,0
1540168153.373,31.738,31.250,-0.488,23.438,99.121,0
1540168153.377,41.992,32.227,6.836,16.113,130.371,0
1540168153.381,45.898,30.762,26.855,14.160,76.172,0
1540168153.385,34.668,30.762,28.320,14.648,10.254,0
1540168153.389,27.344,30.762,24.902,10.742,83.984,0
1540168153.393,34.668,28.320,21.973,14.160,122.070,0
1540168153.397,45.898,26.367,26.367,19.043,60.059,0
1540168153.401,34.180,24.902,20.020,19.043,-13.672,0
1540168153.405,21.973,26.367,7.812,16.113,3.418,0
1540168153.409,30.273,20.996,10.254,17.578,41.992,0
1540168153.413,30.762,18.555,13.672,25.879,-4.883,0
1540168153.416,21.973,20.020,14.160,20.020,-5.371,0
1540168153.420,17.090,25.391,8.789,15.625,26.367,0
1540168153.424,13.184,29.297,5.371,18.066,3.906,0
1540168153.428,20.508,24.414,9.277,24.902,15.625,0
1540168153.432,25.879,23.438,9.766,30.762,1.953,0
1540168153.436,17.578,21.484,9.766,33.691,-14.160,0
1540168153.440,14.648,18.555,17.090,26.367,-4.395,0
1540168153.444,20.020,24.414,23.438,34.180,23.438,0
1540168153.448,29.785,28.809,20.508,25.879,-12.207,0
1540168153.452,27.344,24.414,9.766,0.977,-25.879,0
1540168153.455,16.602,20.996,12.695,4.883,35.156,0
1540168153.459,4.883,20.020,12.695,-6.836,44.922,0
1540168153.463,2.441,20.020,14.160,-5.371,35.645,0
1540168153.467,15.137,32.715,17.578,12.207,-19.531,0
1540168153.471,-5.371,26.855,13.184,-3.418,-22.949,0
1540168153.475,-0.488,12.695,27.344,7.812,-9.277,0
1540168153.479,4.883,27.344,14.160,8.789,-13.672,0
1540168153.483,-14.648,30.273,14.648,-15.625,17.090,0
1540168153.487,-1.465,42.969,24.902,4.395,37.109,0
1540168153.491,-14.648,53.711,8.789,-1.465,92.773,0
1540168153.495,-17.578,42.480,15.137,-11.719,45.410,0
1540168153.498,-16.602,47.363,22.949,-19.531,16.602,0
1540168153.502,-46.875,64.453,10.742,-50.293,40.527,0
1540168153.506,-58.105,67.383,2.930,-61.035,40.039,0
1540168153.510,-57.617,69.824,8.301,-56.152,56.641,0
1540168153.514,-59.570,72.754,2.441,-57.129,70.801,0
1540168153.518,-64.453,75.195,3.906,-72.266,22.949,0
1540168153.522,-72.266,81.543,13.184,-83.496,54.688,0
1540168153.526,-70.312,86.426,23.926,-81.055,84.961,0
1540168153.530,-57.129,81.055,26.855,-81.543,45.898,0
1540168153.534,-50.293,78.613,22.949,-80.078,28.809,0
1540168153.538,-56.152,82.031,19.531,-66.895,89.355,0
1540168153.541,-52.246,82.520,12.695,-38.086,88.379,0
1540168153.545,-37.109,78.613,24.414,-23.926,-11.230,0
1540168153.549,-26.367,63.965,26.855,-28.320,19.531,0
1540168153.553,-37.109,56.641,8.789,-33.691,114.258,0
1540168153.557,-38.574,52.734,13.184,-33.203,85.449,0
1540168153.561,-20.020,52.246,27.344,-24.902,-0.488,0
1540168153.565,-14.160,48.828,24.902,-23.926,-20.996,0
1540168153.569,-20.020,41.992,20.508,-15.625,-40.527,0
1540168153.573,-13.672,48.828,21.484,-12.695,-4.883,0
1540168153.577,-4.395,47.852,20.020,-8.789,53.711,0
1540168153.580,5.371,35.645,13.184,2.930,20.508,0
1540168153.584,3.418,24.902,15.625,0.000,10.254,0
1540168153.588,-3.418,23.926,4.883,2.930,30.762,0
1540168153.592,1.953,21.973,0.488,5.859,8.301,0
1540168153.596,14.160,19.531,22.461,11.230,14.160,0
1540168153.600,26.855,19.043,29.297,20.508,28.809,0
1540168153.604,18.066,11.719,12.207,15.137,40.039,0
1540168153.608,13.672,6.348,-0.488,30.273,36.621,0
1540168153.612,27.832,7.324,11.230,38.574,-13.672,0
1540168153.616,34.180,9.277,7.324,21.484,37.109,0
1540168153.620,29.785,13.672,0.000,32.227,64.453,0
1540168153.623,39.062,17.578,6.836,40.527,8.301,0
1540168153.627,58.594,19.043,-2.930,42.480,50.293,0
1540168153.631,56.152,13.184,15.625,32.227,47.363,0
1540168153.635,42.969,7.812,40.039,13.672,-5.371,0
1540168153.639,41.016,10.254,31.738,29.785,13.672,0
1540168153.643,51.758,12.207,26.855,51.270,24.414,0
1540168153.647,63.477,11.719,22.461,49.805,24.414,0
1540168153.651,67.383,13.672,12.207,41.504,63.477,0
1540168153.655,62.500,14.160,9.766,59.082,37.598,0
1540168153.659,58.105,10.742,20.020,72.754,14.648,0
1540168153.663,64.453,13.672,24.414,55.664,20.020,0
1540168153.666,63.965,15.137,16.602,49.316,-27.344,0
1540168153.670,58.594,10.254,18.555,57.129,-9.277,0
1540168153.674,60.547,8.301,21.484,53.711,17.090,0
1540168153.678,62.012,8.301,13.184,58.594,66.406,0
1540168153.682,67.383,8.789,4.883,64.941,21.973,0
1540168153.686,64.453,14.160,16.113,58.594,14.648,0
1540168153.690,52.246,14.160,22.949,46.875,65.918,0
1540168153.694,49.805,9.277,22.461,46.875,-16.602,0
1540168153.698,62.988,13.184,26.367,54.688,-10.742,0
1540168153.702,60.059,16.113,26.855,47.363,29.297,0
1540168153.705,51.758,18.066,17.578,48.340,37.598,0
1540168153.709,58.105,19.531,10.742,48.340,9.277,0
1540168153.713,63.477,17.090,16.113,47.852,21.973,0
1540168153.717,60.059,19.043,13.184,51.758,23.438,0
1540168153.721,51.758,20.020,11.719,52.734,4.883,0
1540168153.725,51.758,18.066,20.996,51.758,8.301,0
1540168153.729,54.199,21.484,19.531,50.781,-9.277,0
1540168153.733,48.828,15.625,20.996,46.875,19.043,0
1540168153.737,36.621,13.672,24.414,44.922,35.156,0
1540168153.741,36.621,16.113,18.555,36.621,49.316,0
1540168153.745,42.969,13.672,21.484,37.109,29.297,0
1540168153.748,42.480,13.184,21.973,37.598,17.578,0
1540168153.752,36.621,20.020,15.625,24.414,40.527,0
1540168153.756,34.180,23.438,14.160,25.879,12.695,0
1540168153.760,36.133,20.996,13.672,31.250,67.871,0
1540168153.764,42.480,21.484,12.207,41.992,104.980,0
1540168153.768,41.992,20.996,15.137,35.645,32.715,0
1540168153.772,32.715,20.508,15.137,37.109,56.641,0
1540168153.776,38.574,21.484,13.672,45.410,84.961,0
1540168153.780,45.410,22.949,16.602,39.551,22.949,0
1540168153.784,41.992,19.531,22.461,40.039,5.371,1
1540168153.788,36.621,18.555,21.484,37.598,33.203,0
1540168153.791,36.621,20.996,20.996,41.992,34.668,0
1540168153.795,38.086,21.484,17.090,40.039,8.789,0
1540168153.799,40.039,19.531,14.648,27.344,68.848,0
1540168153.803,36.133,17.578,11.230,31.738,103.516,0
1540168153.807,34.180,17.090,12.695,29.297,37.598,0
1540168153.811,41.504,16.113,16.602,16.113,-6.836,0
1540168153.815,53.223,20.508,18.555,10.742,-19.531,0
1540168153.819,59.570,27.344,20.996,12.695,-4.395,0
1540168153.823,51.270,29.297,8.301,22.461,43.457,0
1540168153.827,44.434,25.879,6.348,29.297,23.438,0
1540168153.830,44.434,23.926,21.484,23.926,-3.418,0
1540168153.834,49.805,26.855,14.648,26.367,3.418,0
1540168153.838,40.039,25.391,9.277,34.180,17.090,0
1540168153.842,22.461,20.996,16.113,27.832,14.160,0
1540168153.846,28.809,17.578,14.160,29.785,41.016,0
1540168153.850,34.668,20.508,20.020,35.156,35.156,0
1540168153.854,27.832,21.484,19.531,35.156,10.742,0
1540168153.858,24.414,17.578,20.508,34.668,14.648,0
1540168153.862,25.879,15.137,16.602,25.391,56.641,0
1540168153.866,27.832,13.672,13.184,23.438,44.434,0
1540168153.870,24.414,17.090,22.461,32.227,5.859,0
1540168153.873,27.344,26.367,13.672,27.832,43.945,0
1540168153.877,31.738,26.367,14.160,33.203,51.270,0
1540168153.881,37.109,23.438,28.809,38.574,83.008,0
1540168153.885,35.156,29.297,30.762,30.762,46.875,0
1540168153.889,23.926,26.367,14.648,31.738,-4.395,0
1540168153.893,24.902,20.996,5.371,28.320,-1.465,0
1540168153.897,36.133,20.020,28.809,26.367,33.203,0
1540168153.901,27.832,15.625,28.809,21.484,34.180,0
1540168153.905,16.602,18.555,14.160,21.484,30.762,0
1540168153.909,25.879,23.438,21.484,28.809,45.898,0
1540168153.913,37.109,21.973,19.043,34.180,16.602,0
1540168153.916,36.621,20.508,12.695,36.133,-1.465,0
1540168153.920,26.855,13.184,21.973,28.320,-19.531,0
1540168153.924,29.785,11.719,20.508,23.926,-7.324,0
1540168153.928,38.086,13.672,19.043,32.227,-1.465,0
1540168153.932,41.016,14.648,27.344,40.039,36.621,0
1540168153.936,33.691,17.090,22.461,30.762,45.410,0
1540168153.940,25.391,16.113,14.160,17.090,34.668,0
1540168153.944,26.367,12.695,16.113,20.996,44.434,0
1540168153.948,33.203,11.719,14.160,26.367,5.859,0
1540168153.952,33.691,10.742,9.766,21.973,-59.570,0
1540168153.955,27.344,7.812,9.766,27.344,-26.367,0
1540168153.959,29.297,10.254,16.113,31.738,39.062,0
1540168153.963,29.297,8.301,15.625,32.715,62.012,0
1540168153.967,33.691,8.789,11.230,40.039,65.918,0
1540168153.971,33.691,13.672,15.137,32.227,25.391,0
1540168153.975,34.668,11.719,20.996,27.344,1.953,0
1540168153.979,45.410,11.230,20.020,28.320,-4.883,0
1540168153.983,48.340,12.695,18.555,27.832,-12.207,0
1540168153.987,46.875,17.090,21.973,35.156,5.859,0
1540168153.991,45.898,21.973,20.508,42.480,0.977,0
1540168153.995,48.340,21.484,10.254,34.668,4.883,0
1540168153.998,49.805,20.996,14.160,24.414,16.113,0
1540168154.002,40.527,17.090,18.066,19.531,31.250,0
1540168154.006,36.133,15.625,10.254,18.066,21.484,0
1540168154.010,45.410,23.438,4.883,22.949,22.949,0
1540168154.014,50.293,23.926,-4.395,25.391,32.715,0
1540168154.018,45.410,19.531,15.625,31.738,32.227,0
1540168154.022,41.504,16.113,32.715,29.297,53.711,0
1540168154.026,42.480,16.602,30.273,23.438,44.434,0
1540168154.030,44.434,19.531,29.297,27.344,16.113,0
1540168154.034,46.387,17.578,14.160,27.832,19.531,0
1540168154.038,40.527,16.602,10.742,31.738,26.367,0
1540168154.041,32.227,15.625,22.461,25.879,-10.742,0
1540168154.045,30.762,14.648,30.762,11.719,25.879,0
1540168154.049,32.227,20.996,29.297,20.508,37.109,0
1540168154.053,33.691,27.344,22.949,27.344,6.836,0
1540168154.057,31.738,25.391,25.879,20.508,42.480,0
1540168154.061,37.109,19.531,21.484,25.391,46.875,0
1540168154.065,41.504,18.066,16.113,25.391,35.156,0
1540168154.069,29.297,19.043,20.996,25.391,3.418,0
1540168154.073,22.461,17.090,22.949,40.039,-29.785,0
1540168154.077,25.391,18.066,19.043,35.645,29.297,0
1540168154.080,34.668,19.043,17.090,26.855,18.555,0
1540168154.084,36.133,20.508,15.137,29.297,-3.418,0
1540168154.088,30.273,21.484,13.672,22.949,9.277,0
1540168154.092,31.738,17.578,18.066,22.461,-14.160,0
1540168154.096,38.574,20.020,19.531,31.738,-4.395,0
1540168154.100,41.992,29.785,23.926,34.668,21.973,0
1540168154.104,38.086,30.762,24.902,29.785,69.336,0
1540168154.108,29.785,25.391,21.973,35.645,61.523,0
1540168154.112,33.691,24.414,14.648,34.668,51.758,0
1540168154.116,44.434,23.926,13.184,25.391,19.531,0
1540168154.120,26.367,22.461,18.066,22.949,-3.906,0
1540168154.123,15.625,22.461,20.996,22.461,67.871,0
1540168154.127,25.879,20.996,21.484,34.668,69.824,0
1540168154.131,28.320,20.020,5.371,36.621,26.855,0
1540168154.135,21.973,17.090,2.441,24.414,9.277,0
1540168154.139,15.137,14.160,25.391,23.438,-2.441,0
1540168154.143,22.461,17.090,31.738,25.879,16.113,0
1540168154.147,34.180,16.113,27.832,27.344,49.316,0
1540168154.151,31.250,15.625,20.508,26.367,47.852,0
1540168154.155,28.320,18.066,15.625,22.949,30.762,0
1540168154.159,30.762,19.043,19.043,20.508,-1.465,0
1540168154.163,31.250,20.508,19.531,22.949,2.930,0
1540168154.166,27.832,17.578,20.020,20.996,18.066,0
1540168154.170,20.020,13.184,20.996,22.949,4.395,0
1540168154.174,23.438,15.137,20.996,23.438,36.133,0
1540168154.178,35.156,13.672,17.578,30.762,32.715,0
1540168154.182,36.621,8.301,14.160,41.016,-14.160,0
1540168154.186,25.879,11.719,17.090,30.762,-12.207,0
1540168154.190,17.090,11.230,17.090,19.043,51.758,0
1540168154.194,26.855,11.230,2.930,23.438,79.102,0
1540168154.198,40.039,11.230,-0.977,36.621,101.074,0
1540168154.202,38.086,10.254,16.113,44.434,104.492,0
1540168154.205,22.949,13.672,17.090,35.645,94.238,0
1540168154.209,20.020,13.184,12.207,17.578,92.773,0
1540168154.213,29.785,8.789,24.902,17.090,33.203,0
1540168154.217,27.832,8.789,30.273,16.113,30.762,0
1540168154.221,18.555,19.043,29.297,5.371,28.809,0
1540168154.225,13.672,27.344,24.902,20.020,-5.859,0
1540168154.229,15.625,21.484,34.180,26.367,51.758,0
1540168154.233,17.090,16.602,34.668,7.324,29.785,0
1540168154.237,11.230,16.602,18.555,10.742,10.254,0
1540168154.241,14.648,20.508,29.297,23.926,63.477,0
1540168154.245,22.949,21.973,35.156,31.250,39.551,0
1540168154.248,30.273,22.949,26.367,26.367,22.949,0
1540168154.252,27.832,20.996,31.250,11.230,36.621,0
1540168154.256,20.508,18.066,32.227,4.883,22.949,0
1540168154.260,17.578,22.461,30.273,11.719,34.668,0
1540168154.264,20.020,24.414,32.715,13.672,53.223,0
1540168154.268,19.531,17.578,25.391,22.461,27.832,0
1540168154.272,14.648,16.113,21.973,14.160,25.879,0
1540168154.276,16.113,21.484,29.297,5.371,43.945,0
1540168154.280,23.926,20.020,30.273,10.742,34.668,0
1540168154.284,22.949,22.949,27.832,18.066,27.832,0
1540168154.288,16.602,27.344,25.391,37.109,11.230,0
1540168154.291,26.855,25.879,22.461,31.250,-20.996,0
1540168154.295,43.945,26.367,15.137,33.203,-17.578,0
1540168154.299,42.480,26.855,13.672,36.621,26.855,0
1540168154.303,32.715,22.949,19.531,26.367,20.020,0
1540168154.307,24.902,18.066,21.973,23.926,21.973,0
1540168154.311,22.949,20.508,19.531,25.391,22.949,0
1540168154.315,28.809,22.461,24.902,30.273,42.969,0
1540168154.319,26.855,20.996,30.762,23.926,34.180,0
1540168154.323,21.484,25.879,26.367,8.789,-30.273,0
1540168154.327,26.367,25.879,19.531,6.836,-19.043,0
1540168154.330,39.062,22.461,19.531,23.438,16.113,0
1540168154.334,40.527,23.926,18.555,28.320,37.109,0
1540168154.338,28.320,24.414,15.137,28.809,26.367,0
1540168154.342,21.484,18.555,12.207,26.855,19.531,0
1540168154.346,21.973,16.602,15.625,17.578,4.395,0
1540168154.350,23.926,20.020,27.344,17.090,6.348,0
1540168154.354,19.043,23.926,24.902,23.438,-4.395,0
1540168154.358,18.066,24.902,20.020,26.855,15.137,0
1540168154.362,22.949,19.531,16.113,23.438,47.363,0
1540168154.366,32.227,19.531,16.602,22.461,12.695,0
1540168154.370,33.691,22.949,29.297,12.207,21.484,0
1540168154.373,29.785,20.996,27.832,10.742,22.461,0
1540168154.377,38.574,16.113,20.508,24.414,-26.855,0
1540168154.381,38.086,12.207,18.555,21.973,-41.992,0
1540168154.385,26.367,16.113,23.438,20.508,-27.832,0
1540168154.389,18.066,18.066,28.320,21.484,8.301,0
1540168154.393,22.949,18.555,25.879,24.902,-9.277,0
1540168154.397,31.250,18.066,20.508,28.320,-22.949,0
1540168154.401,31.738,16.602,20.996,28.809,34.180,0
1540168154.405,25.391,13.672,24.414,31.738,24.902,0
1540168154.409,20.508,15.625,23.926,26.367,32.227,0
1540168154.413,33.691,20.508,21.973,23.926,67.383,0
1540168154.416,38.086,16.113,19.043,17.578,60.059,0
1540168154.420,20.020,16.602,20.508,8.301,14.648,0
1540168154.424,17.090,20.996,22.949,15.625,0.488,0
1540168154.428,23.438,22.461,21.973,24.902,24.414,0
1540168154.432,24.902,22.461,22.949,25.879,-7.812,0
1540168154.436,22.949,22.949,24.902,23.926,-6.836,0
1540168154.440,17.578,21.973,20.020,17.090,-23.438,0
1540168154.444,20.508,17.578,17.578,17.090,-6.348,0
1540168154.448,31.250,20.020,17.578,20.996,2.441,0
1540168154.452,31.250,20.996,16.113,19.043,22.461,0
1540168154.455,22.461,17.578,18.066,25.879,67.871,0
1540168154.459,27.832,20.996,18.066,37.598,98.633,0
1540168154.463,40.039,21.484,16.113,31.250,62.500,0
1540168154.467,40.527,24.902,19.531,31.250,23.926,0
1540168154.471,34.180,28.320,20.020,31.738,56.152,0
1540168154.475,31.250,28.809,15.625,24.414,83.984,0
1540168154.479,40.039,30.273,20.996,27.344,59.570,0
1540168154.483,47.852,22.949,24.414,40.039,16.113,0
1540168154.487,48.340,22.949,23.926,38.574,4.395,2
1540168154.491,41.016,27.832,25.879,19.531,66.406,0
1540168154.495,29.297,26.855,18.066,26.367,89.355,0
1540168154.498,29.785,26.855,16.602,29.297,33.691,0
1540168154.502,25.879,24.902,23.926,15.625,49.316,0
1540168154.506,19.043,21.973,27.344,19.043,84.961,0
1540168154.510,26.367,18.555,28.320,21.973,61.523,0
1540168154.514,41.504,13.672,21.973,23.438,10.742,0
1540168154.518,34.668,7.812,20.996,24.902,25.391,0
1540168154.522,18.066,7.324,26.367,25.391,80.078,0
1540168154.526,30.273,6.348,25.391,41.016,79.590,0
1540168154.530,57.617,3.418,30.273,48.340,26.855,0
1540168154.534,51.758,4.395,29.785,18.555,30.273,0
1540168154.538,23.926,5.859,26.855,15.625,101.074,0
1540168154.541,8.789,8.789,21.484,29.297,24.414,0
1540168154.545,11.719,11.230,13.672,11.719,-42.480,0
1540168154.549,26.367,11.719,20.020,8.301,81.543,0
1540168154.553,26.855,14.648,20.996,14.160,120.117,0
1540168154.557,12.695,13.184,18.555,13.672,84.473,0
1540168154.561,25.879,10.254,24.902,21.973,61.035,0
1540168154.565,45.898,11.230,19.531,21.973,32.227,0
1540168154.569,43.945,14.160,21.484,26.367,26.855,0
1540168154.573,41.504,14.648,29.297,42.969,6.348,0
1540168154.577,46.387,12.207,24.414,25.391,0.000,0
1540168154.580,52.246,13.672,18.555,0.000,9.766,0
1540168154.584,47.363,16.602,22.461,1.465,6.836,0
1540168154.588,36.133,17.090,19.531,10.254,19.043,0
1540168154.592,24.414,20.508,12.695,26.855,31.738,0
1540168154.596,23.926,22.949,24.902,33.203,70.801,0
1540168154.600,28.320,20.020,24.414,24.414,30.762,0
1540168154.604,28.320,20.020,13.672,26.367,17.090,0
1540168154.608,28.809,18.066,15.625,27.344,23.926,0
1540168154.612,27.832,11.719,24.414,27.344,-43.945,0
1540168154.616,32.227,15.625,31.250,22.949,27.344,0
1540168154.620,32.227,13.184,22.949,19.043,2.441,0
1540168154.623,26.367,12.207,11.719,32.227,-10.254,0
1540168154.627,19.531,23.438,27.832,37.598,60.059,0
1540168154.631,23.926,20.996,47.363,29.297,0.488,0
1540168154.635,27.344,22.461,37.109,17.090,-24.902,0
1540168154.639,16.113,22.949,19.043,15.625,20.508,0
1540168154.643,13.672,13.672,23.438,29.785,-3.906,0
1540168154.647,29.785,21.973,24.902,43.945,-6.836,0
1540168154.651,34.180,28.320,17.578,50.781,34.180,0
1540168154.655,23.438,18.555,24.902,27.832,46.387,0
1540168154.659,23.438,19.531,29.785,8.301,12.207,0
1540168154.663,19.531,20.508,36.621,18.555,13.184,0
1540168154.666,22.461,19.043,33.691,22.949,44.922,0
1540168154.670,20.508,23.926,25.879,25.879,3.906,0
1540168154.674,13.672,20.508,21.973,30.762,11.719,0
1540168154.678,16.113,20.020,20.508,38.086,5.859,0
1540168154.682,25.391,26.855,20.020,26.855,-17.578,0
1540168154.686,23.926,24.902,16.113,23.926,34.180,0
1540168154.690,20.020,25.391,28.320,28.809,16.113,0
1540168154.694,27.344,27.344,38.574,27.344,-15.137,0
1540168154.698,38.086,24.902,12.207,28.809,19.531,0
1540168154.702,41.016,20.508,8.789,22.461,66.895,0
1540168154.705,45.898,24.902,31.738,9.766,77.637,0
1540168154.709,46.875,27.832,29.297,20.996,64.941,0
1540168154.713,29.785,16.113,24.414,20.508,30.762,0
1540168154.717,20.996,13.184,21.484,5.371,-36.133,0
1540168154.721,22.461,22.461,20.020,11.230,-46.875,0
1540168154.725,19.043,19.531,17.090,30.273,28.320,0
1540168154.729,28.809,17.578,10.254,40.527,52.734,0
1540168154.733,46.875,24.414,17.090,32.227,11.719,0
1540168154.737,44.434,23.438,26.855,24.902,7.324,0
1540168154.741,33.691,17.578,24.902,28.320,6.348,0
1540168154.745,36.621,14.648,13.184,16.602,41.016,0
1540168154.748,39.551,20.508,8.301,9.277,25.879,0
1540168154.752,30.273,-1.953,8.301,29.297,-10.254,0
1540168154.756,28.320,11.719,15.625,35.645,11.719,0
1540168154.760,21.484,32.715,14.648,16.602,74.707,0
1540168154.764,31.250,16.113,12.207,13.672,84.473,0
1540168154.768,43.945,33.691,24.414,17.578,30.273,0
1540168154.772,0.977,33.203,29.785,-1.465,20.508,0
1540168154.776,-11.230,30.273,16.113,-9.766,13.672,0
1540168154.780,26.367,61.035,24.414,22.461,24.414,0
1540168154.784,10.742,51.270,49.805,6.836,-5.371,0
1540168154.788,-42.969,36.133,12.207,-53.223,-22.461,0
1540168154.791,-38.574,58.105,-14.160,-53.223,-11.719,0
1540168154.795,15.625,73.242,25.391,-8.789,0.000,0
1540168154.799,14.648,62.500,34.180,-5.371,71.777,0
1540168154.803,-18.066,66.406,41.992,-29.785,38.086,0
1540168154.807,-31.738,74.219,37.109,-37.598,45.898,0
1540168154.811,-30.762,79.590,20.020,-38.574,39.551,0
1540168154.815,-29.785,85.938,36.621,-43.945,9.277,0
1540168154.819,-51.270,89.355,45.410,-61.523,62.500,0
1540168154.823,-66.895,92.773,37.598,-71.289,51.758,0
1540168154.827,-49.805,105.957,34.668,-58.594,1.953,0
1540168154.830,-29.297,117.676,35.156,-48.340,-9.277,0
1540168154.834,-32.715,123.047,21.484,-48.340,4.883,0
1540168154.838,-57.617,121.582,16.602,-53.711,-18.555,0
1540168154.842,-54.688,117.676,43.945,-48.340,1.953,0
1540168154.846,-27.832,115.723,57.129,-38.086,27.344,0
1540168154.850,-35.156,118.164,43.945,-54.199,45.898,0
1540168154.854,-59.570,124.512,52.734,-58.594,62.988,0
1540168154.858,-55.664,121.582,47.852,-45.898,1.465,0
1540168154.862,-41.504,106.445,34.668,-44.434,-14.648,0
1540168154.866,-26.367,101.562,39.062,-36.133,-1.953,0
1540168154.870,-22.949,99.609,19.531,-20.508,39.551,0
1540168154.873,-12.695,84.473,12.207,-5.371,91.309,0
1540168154.877,8.301,76.660,17.090,6.348,39.551,0
1540168154.881,14.160,68.359,14.160,5.859,9.277,0
1540168154.885,5.859,55.176,31.250,2.930,81.543,0
1540168154.889,-1.953,49.805,40.039,0.977,41.992,0
1540168154.893,12.695,52.246,36.621,9.277,-46.387,0
1540168154.897,27.832,45.898,30.273,18.555,6.348,0
1540168154.901,29.785,41.504,18.066,21.484,96.680,0
1540168154.905,33.691,28.809,1.953,32.227,79.102,0
1540168154.909,36.133,23.926,-8.789,49.316,13.672,0
1540168154.913,33.203,24.902,8.789,34.668,8.789,0
1540168154.916,28.809,16.602,24.414,19.531,52.246,0
1540168154.920,24.414,9.277,19.043,32.227,106.445,0
1540168154.924,26.367,6.836,11.230,38.086,88.379,0
1540168154.928,36.133,2.930,2.930,50.781,30.762,0
1540168154.932,50.781,1.465,7.324,43.457,31.250,0
1540168154.936,56.641,2.441,19.531,33.691,60.059,0
1540168154.940,53.223,-0.488,14.648,50.781,68.848,0
1540168154.944,50.293,0.000,8.301,59.570,45.898,0
1540168154.948,61.035,-5.859,9.766,61.523,40.527,0
1540168154.952,61.035,-7.324,16.113,63.965,32.715,0
1540168154.955,52.246,-1.465,17.578,69.336,-5.859,0
1540168154.959,59.570,-0.977,18.066,71.289,43.457,0
1540168154.963,68.359,-10.742,15.137,74.707,55.176,0
1540168154.967,67.871,-13.672,16.113,65.430,-4.883,0
1540168154.971,64.453,-5.859,27.344,64.453,1.465,0
1540168154.975,71.289,0.977,29.785,76.172,-7.812,0
1540168154.979,77.637,-2.441,26.855,74.219,-4.883,0
1540168154.983,73.242,-7.324,24.902,62.988,56.641,0
1540168154.987,54.688,-1.465,19.043,51.758,64.453,0
1540168154.991,50.293,1.465,9.766,57.129,16.602,0
1540168154.995,59.570,1.465,13.672,71.289,-32.227,0
1540168154.998,65.430,3.418,23.926,67.383,-26.855,0
1540168155.002,65.918,4.395,25.391,62.500,26.367,0
1540168155.006,57.617,4.883,21.484,67.871,46.387,0
1540168155.010,59.082,2.441,14.648,74.707,-25.391,0
1540168155.014,68.848,-0.488,11.230,75.195,-20.508,0
1540168155.018,67.871,-0.977,17.578,78.125,-1.465,0
1540168155.022,65.430,1.953,21.973,71.777,-25.391,0
1540168155.026,75.195,3.418,21.484,60.059,17.578,0
1540168155.030,75.684,1.465,22.461,59.570,7.324,0
1540168155.034,64.453,3.906,17.578,51.758,6.348,0
1540168155.038,61.035,7.812,12.695,50.781,61.035,0
1540168155.041,62.988,9.766,12.207,57.617,47.363,0
1540168155.045,62.012,7.324,24.414,65.430,22.949,0
1540168155.049,55.664,9.277,31.250,62.988,19.043,0
1540168155.053,45.410,4.395,20.508,61.523,1.953,0
1540168155.057,37.598,3.906,16.602,46.387,-10.254,0
1540168155.061,43.945,13.672,24.414,41.504,13.672,0
1540168155.065,45.410,10.742,24.902,48.340,2.930,0
1540168155.069,38.574,7.324,13.672,39.551,-12.695,0
1540168155.073,43.945,9.766,12.695,49.805,64.941,1
1540168155.077,47.852,10.742,23.438,55.664,121.582,0
1540168155.080,40.039,6.836,27.344,38.574,73.730,0
1540168155.084,40.039,3.418,22.461,45.898,26.855,0
1540168155.088,38.574,7.812,7.324,52.246,33.691,0
1540168155.092,36.621,4.395,11.719,29.297,39.551,0
1540168155.096,42.969,0.977,19.043,24.902,-1.465,0
1540168155.100,42.480,6.348,20.020,27.832,27.832,0
1540168155.104,34.668,10.254,27.832,32.715,71.777,0
1540168155.108,37.598,14.648,18.066,45.410,21.973,0
1540168155.112,41.504,14.648,12.207,46.387,-43.457,0
1540168155.116,37.109,4.883,13.184,32.715,-19.043,0
1540168155.120,31.738,11.230,16.602,34.668,20.020,0
1540168155.123,37.109,18.555,21.973,56.641,32.227,0
1540168155.127,47.363,13.184,21.484,52.734,63.477,0
1540168155.131,47.363,8.789,25.879,33.691,29.785,0
1540168155.135,41.992,6.836,21.484,27.344,8.301,0
1540168155.139,34.668,8.301,13.184,30.273,-17.578,0
1540168155.143,37.598,10.254,16.602,37.109,-31.738,0
1540168155.147,44.922,11.719,22.461,31.250,22.949,0
1540168155.151,45.410,9.277,23.438,33.691,36.133,0
1540168155.155,36.621,11.719,23.438,42.969,79.590,0
1540168155.159,36.621,14.648,25.391,45.410,121.582,0
1540168155.163,45.410,12.695,18.555,37.598,54.199,0
1540168155.166,44.922,14.160,20.508,27.344,-0.977,0
1540168155.170,29.297,15.137,31.738,21.973,41.016,0
1540168155.174,28.320,12.207,23.926,18.555,88.867,0
1540168155.178,44.434,9.766,17.090,29.297,27.832,0
1540168155.182,41.504,13.184,21.484,33.203,-9.277,0
1540168155.186,27.832,11.230,21.484,21.973,23.438,0
1540168155.190,28.809,13.184,22.461,20.020,54.199,0
1540168155.194,31.738,16.113,24.902,22.461,65.918,0
1540168155.198,37.109,14.160,20.020,25.391,48.828,0
1540168155.202,35.645,11.230,20.020,22.949,57.129,0
1540168155.205,26.855,6.348,22.461,33.691,28.809,0
1540168155.209,33.691,10.254,19.043,41.016,-3.418,0
1540168155.213,38.086,18.066,16.113,25.391,21.973,0
1540168155.217,27.344,17.578,13.672,16.113,2.441,0
1540168155.221,20.996,16.602,21.484,17.578,-20.020,0
1540168155.225,18.555,15.137,27.344,15.137,11.719,0
1540168155.229,21.973,11.719,21.973,12.695,33.203,0
1540168155.233,29.297,11.230,20.996,19.531,10.254,0
1540168155.237,20.020,13.672,24.902,18.555,17.090,0
1540168155.241,23.438,16.113,23.926,20.020,40.527,0
1540168155.245,44.434,20.020,25.879,32.715,32.227,0
1540168155.248,47.852,19.043,23.926,32.227,29.297,0
1540168155.252,41.504,16.113,16.113,39.062,63.965,0
1540168155.256,55.664,17.578,16.113,61.523,58.594,0
1540168155.260,57.129,20.996,13.184,55.664,52.246,0
1540168155.264,38.086,19.531,10.742,40.527,24.414,0
1540168155.268,32.715,16.113,9.766,32.715,13.672,0
1540168155.272,31.738,18.066,23.438,17.090,9.277,0
1540168155.276,31.738,20.020,41.992,16.113,11.719,0
1540168155.280,35.645,22.949,31.250,28.320,41.504,0
1540168155.284,27.832,17.090,21.973,21.973,-15.137,0
1540168155.288,15.625,9.766,25.879,16.602,-11.719,0
1540168155.291,14.648,10.742,25.391,26.367,83.496,0
1540168155.295,27.344,16.113,31.250,37.598,43.945,0
1540168155.299,44.434,19.043,31.738,36.621,-45.410,0
1540168155.303,38.574,14.648,26.367,36.621,-15.625,0
1540168155.307,22.461,14.160,24.414,41.016,-6.348,0
1540168155.311,25.879,18.066,18.555,47.852,-51.270,0
1540168155.315,41.016,17.578,20.020,48.340,-51.758,0
1540168155.319,47.852,19.531,23.438,33.203,-12.207,0
1540168155.323,38.574,20.996,12.695,31.738,-13.672,0
1540168155.327,33.203,20.996,12.207,39.551,3.906,0
1540168155.330,35.645,20.508,25.391,41.016,-2.441,0
1540168155.334,40.527,19.043,26.855,43.945,25.391,0
1540168155.338,43.457,20.508,30.273,45.410,62.988,0
1540168155.342,37.598,24.902,29.297,43.457,12.695,0
1540168155.346,36.621,23.438,25.391,39.062,37.598,0
1540168155.350,40.039,20.020,30.762,33.203,88.867,0
1540168155.354,30.762,21.484,19.531,39.551,87.891,0
1540168155.358,32.227,24.414,19.043,36.621,34.180,0
1540168155.362,42.480,25.391,36.621,45.898,25.879,0
1540168155.366,41.992,26.367,35.156,53.223,82.520,0
1540168155.370,30.762,27.344,26.855,37.109,36.133,0
1540168155.373,29.785,29.785,21.973,23.438,57.617,0
1540168155.377,35.645,28.809,20.020,16.113,89.844,0
1540168155.381,42.480,26.855,26.367,16.602,61.035,0
1540168155.385,38.086,25.879,30.273,13.184,14.160,0
1540168155.389,26.855,28.809,20.996,9.766,0.977,0
1540168155.393,32.227,27.344,18.066,13.184,58.594,0
1540168155.397,39.551,26.367,9.277,18.066,24.902,0
1540168155.401,37.109,28.320,14.160,15.625,52.734,0
1540168155.405,22.461,21.973,31.250,8.789,83.984,0
1540168155.409,19.531,21.484,26.855,12.207,35.645,0
1540168155.413,23.438,23.438,24.902,17.090,45.410,0
1540168155.416,24.414,24.414,24.902,21.484,40.527,0
1540168155.420,18.555,24.902,24.902,23.438,31.738,0
1540168155.424,17.090,22.461,24.902,19.531,62.988,0
1540168155.428,26.367,20.508,16.602,23.438,42.969,0
1540168155.432,35.156,19.043,10.254,22.949,-1.465,0
1540168155.436,27.344,19.531,15.625,24.414,31.738,0
1540168155.440,18.066,20.996,17.578,37.598,41.504,0
1540168155.444,28.320,22.461,20.508,45.410,10.742,0
1540168155.448,32.715,23.438,28.809,25.879,9.277,0
1540168155.452,24.902,23.438,27.344,17.090,13.184,0
1540168155.455,16.113,22.949,29.297,26.855,33.691,0
1540168155.459,20.020,23.926,24.902,27.344,7.812,0
1540168155.463,29.785,21.484,19.531,25.879,17.090,0
1540168155.467,33.203,20.996,26.367,23.438,2.441,0
1540168155.471,23.438,23.438,20.996,10.742,-28.320,0
1540168155.475,7.324,18.555,7.812,5.371,-5.371,0
1540168155.479,8.789,14.648,12.207,8.301,21.484,0
1540168155.483,16.602,20.996,20.996,11.230,-11.230,0
1540168155.487,11.719,21.973,21.484,14.648,-36.133,0
1540168155.491,9.277,17.090,22.461,12.695,38.086,0
1540168155.495,19.043,18.555,17.578,16.602,-5.371,0
1540168155.498,23.438,19.043,10.254,20.020,42.480,0
1540168155.502,19.043,16.602,14.648,18.555,53.711,0
1540168155.506,19.043,17.090,20.020,16.602,-20.020,0
1540168155.510,26.367,20.020,21.484,21.484,-0.488,0
1540168155.514,38.086,20.508,20.020,21.973,-12.695,0
1540168155.518,37.109,17.578,8.301,21.973,-4.395,0
1540168155.522,25.879,20.020,7.324,28.809,29.785,0
1540168155.526,29.785,12.695,14.160,25.391,15.625,0
1540168155.530,38.574,8.789,14.648,27.344,14.160,0
1540168155.534,40.527,20.020,17.090,30.762,47.852,0
1540168155.538,29.297,22.461,27.832,28.809,-19.531,0
1540168155.541,26.855,27.344,24.902,26.855,-41.016,0
1540168155.545,34.180,33.203,9.277,43.945,13.672,0
1540168155.549,32.227,22.461,9.766,38.574,38.086,0
1540168155.553,24.414,20.996,20.996,8.789,-4.883,0
1540168155.557,27.344,23.926,22.949,14.160,-30.273,0
1540168155.561,37.109,20.020,20.508,16.602,22.949,0
1540168155.565,41.016,19.043,18.066,9.277,35.156,0
1540168155.569,33.691,20.020,16.602,7.324,-1.953,0
1540168155.573,22.461,17.578,11.719,11.719,28.320,0
1540168155.577,14.160,17.090,13.184,18.066,60.547,0
1540168155.580,22.949,18.555,16.113,20.020,66.895,0
1540168155.584,27.344,16.602,13.672,20.020,50.781,0
1540168155.588,16.602,13.184,6.836,11.719,29.297,0
1540168155.592,20.508,15.137,5.859,18.066,22.949,0
1540168155.596,29.297,12.695,19.531,28.320,45.898,0
1540168155.600,25.391,14.160,25.391,16.113,77.148,0
1540168155.604,19.531,20.996,25.391,11.230,13.184,0
1540168155.608,23.438,15.137,24.414,12.207,-10.254,0
1540168155.612,37.598,16.602,14.160,14.648,38.574,0
1540168155.616,39.551,17.578,7.812,17.090,59.082,0
1540168155.620,28.809,8.789,16.113,16.113,34.180,0
1540168155.623,16.113,7.812,20.508,8.301,-11.230,0
1540168155.627,22.461,15.625,14.160,12.695,17.090,0
1540168155.631,37.598,21.484,11.230,21.484,30.762,0
1540168155.635,34.668,22.461,9.766,23.438,40.039,0
1540168155.639,34.668,20.020,7.324,34.180,56.641,0
1540168155.643,35.645,20.996,20.508,34.180,52.246,0
1540168155.647,37.598,23.438,37.598,22.949,92.285,0
1540168155.651,38.574,22.949,22.949,22.461,98.145,0
1540168155.655,24.414,26.367,15.137,24.414,85.938,0
1540168155.659,18.555,25.879,29.785,25.391,73.730,0
1540168155.663,23.926,21.484,31.738,18.066,47.363,0
1540168155.666,27.832,19.043,30.273,16.113,29.297,0
1540168155.670,20.996,15.625,27.344,24.902,0.000,0
1540168155.674,23.926,16.113,6.836,44.922,2.441,0
1540168155.678,40.039,16.602,17.578,50.293,21.973,0
1540168155.682,49.805,20.020,43.945,44.434,16.113,0
1540168155.686,38.086,13.672,8.301,34.180,-30.273,0
1540168155.690,20.996,12.207,20.996,22.949,-54.199,0
1540168155.694,12.695,16.602,49.805,22.461,-12.207,0
1540168155.698,17.090,12.695,37.109,15.625,63.477,0
1540168155.702,17.578,17.090,44.922,10.254,41.992,0
1540168155.705,15.137,17.090,35.156,21.973,24.414,0
1540168155.709,26.855,17.090,28.809,32.715,64.453,0
1540168155.713,31.738,16.113,29.297,30.762,18.555,0
1540168155.717,30.273,18.066,23.438,29.785,-33.203,0
1540168155.721,27.344,23.926,20.508,36.133,8.789,0
1540168155.725,30.762,25.879,20.020,40.527,30.273,0
1540168155.729,37.109,25.391,20.996,32.715,47.363,0
1540168155.733,40.039,20.508,24.902,29.297,72.266,1
1540168155.737,34.668,20.020,34.180,31.250,58.594,0
1540168155.741,36.133,22.461,32.227,34.668,38.574,0
1540168155.745,42.480,21.973,20.508,39.062,72.266,0
1540168155.748,38.574,20.996,18.066,32.715,53.711,0
1540168155.752,30.762,20.996,18.066,35.156,8.789,0
1540168155.756,29.785,24.414,26.367,39.062,-12.695,0
1540168155.760,31.250,23.926,28.809,29.785,20.996,0
1540168155.764,32.227,20.996,21.484,26.855,57.129,0
1540168155.768,35.645,23.438,17.578,28.320,8.789,0
1540168155.772,32.227,27.832,18.066,29.297,28.320,0
1540168155.776,26.855,24.414,13.184,21.484,50.293,0
1540168155.780,30.762,23.438,10.742,23.438,56.152,0
1540168155.784,34.180,21.484,19.043,30.762,48.340,0
1540168155.788,27.344,20.020,23.438,24.414,-2.930,0
1540168155.791,30.273,24.902,22.949,22.461,5.371,0
1540168155.795,39.551,26.855,24.902,24.414,41.992,0
1540168155.799,31.250,21.484,26.855,21.973,37.109,0
1540168155.803,21.973,19.531,28.809,23.438,39.062,0
1540168155.807,24.902,22.949,24.414,24.902,43.945,0
1540168155.811,33.203,23.438,20.508,37.109,14.648,0
1540168155.815,37.598,20.508,20.996,42.480,-2.930,0
1540168155.819,28.320,21.484,16.113,22.949,-47.363,0
1540168155.823,20.996,20.996,15.137,20.996,-28.809,0
1540168155.827,23.438,17.090,19.531,21.973,50.293,0
1540168155.830,31.250,20.996,20.020,23.926,83.496,0
1540168155.834,33.203,20.020,25.879,29.785,64.453,0
1540168155.838,27.832,25.879,23.438,34.668,12.207,0
1540168155.842,31.738,26.855,18.066,32.715,28.320,0
1540168155.846,37.598,16.602,24.414,24.414,-8.301,0
1540168155.850,36.621,17.578,27.344,23.926,-30.273,0
1540168155.854,22.461,22.461,25.879,27.832,-58.105,0
1540168155.858,12.207,20.020,28.809,29.785,-53.223,0
1540168155.862,15.625,18.555,25.879,24.902,-4.395,0
1540168155.866,23.438,11.719,17.578,26.367,35.156,0
1540168155.870,29.297,10.254,22.461,32.227,26.367,0
1540168155.873,18.555,21.484,24.414,27.832,51.270,0
1540168155.877,20.996,25.879,10.742,34.180,44.434,0
1540168155.881,33.203,26.367,11.230,35.645,2.930,0
1540168155.885,19.531,21.484,27.344,23.438,5.371,0
1540168155.889,7.324,15.625,39.062,23.926,39.551,0
1540168155.893,7.324,19.043,41.992,23.926,46.387,0
1540168155.897,14.648,26.855,36.621,20.508,46.875,0
1540168155.901,14.648,26.855,34.180,13.184,37.109,0
1540168155.905,7.812,25.391,32.227,13.184,7.324,0
1540168155.909,12.695,22.949,33.691,21.484,-0.977,0
1540168155.913,21.973,20.508,30.273,18.555,23.438,0
1540168155.916,27.344,22.949,20.996,13.184,37.598,0
1540168155.920,20.508,23.926,16.602,19.531,20.020,0
1540168155.924,14.648,24.414,14.160,28.320,39.062,0
1540168155.928,19.043,24.414,29.297,23.438,27.832,0
1540168155.932,25.879,24.902,28.320,25.879,7.812,0
1540168155.936,21.973,25.879,16.113,33.203,-6.836,0
1540168155.940,20.020,22.461,30.273,23.438,-8.789,0
1540168155.944,20.020,26.855,31.250,22.949,5.859,0
1540168155.948,24.414,30.762,30.762,24.902,13.184,0
1540168155.952,28.320,19.531,39.551,20.508,40.527,0
1540168155.955,18.066,20.996,41.992,21.484,44.434,0
1540168155.959,9.277,27.344,33.203,20.020,1.465,0
1540168155.963,14.160,25.391,28.320,14.648,23.438,0
1540168155.967,19.531,28.809,34.180,10.742,75.195,0
1540168155.971,17.578,28.809,33.691,13.672,12.207,0
1540168155.975,20.020,31.250,29.297,22.949,-2.441,0
1540168155.979,30.273,36.133,23.926,26.855,37.109,0
1540168155.983,36.133,29.297,16.113,20.996,32.715,0
1540168155.987,26.855,31.250,26.855,17.578,65.918,0
1540168155.991,27.344,37.598,32.715,18.066,67.871,0
1540168155.995,39.062,39.551,28.320,22.461,38.086,0
1540168155.998,41.992,38.086,28.320,32.227,52.734,0
1540168156.002,36.133,28.809,21.973,34.668,74.219,0
1540168156.006,31.738,28.320,27.832,30.273,47.852,0
1540168156.010,32.715,29.297,29.785,29.785,15.137,0
1540168156.014,36.621,30.762,29.297,33.203,-7.812,0
1540168156.018,35.156,35.645,25.391,22.949,0.000,0
1540168156.022,29.297,28.320,19.531,15.137,41.504,0
1540168156.026,33.203,23.438,28.809,22.461,66.895,0
1540168156.030,39.062,31.250,24.902,25.391,16.602,0
1540168156.034,41.992,36.133,21.973,34.668,-12.207,0
1540168156.038,34.668,31.250,35.645,37.598,13.672,0
1540168156.041,29.297,26.855,29.785,30.273,10.254,0
1540168156.045,34.180,26.855,22.461,30.273,20.508,0
1540168156.049,45.410,25.879,33.691,28.320,18.066,0
1540168156.053,44.434,23.438,35.156,21.973,4.395,0
1540168156.057,35.156,23.926,25.391,26.855,37.598,0
1540168156.061,43.945,26.367,21.973,35.645,90.820,0
1540168156.065,40.039,24.414,26.855,22.461,57.129,0
1540168156.069,20.996,23.438,31.738,13.672,32.715,0
1540168156.073,10.742,21.973,27.344,24.902,54.688,0
1540168156.077,15.625,21.973,23.926,24.902,-3.418,0
1540168156.080,22.461,24.902,21.973,19.043,15.625,0
1540168156.084,25.879,23.926,17.578,20.508,57.617,0
1540168156.088,20.020,20.996,19.043,17.090,20.508,0
1540168156.092,14.648,21.484,21.973,14.648,23.438,0
1540168156.096,21.484,21.973,15.137,14.648,39.551,0
1540168156.100,37.109,27.832,16.113,14.648,57.617,0
1540168156.104,36.621,26.367,20.020,27.832,32.715,0
1540168156.108,26.367,19.531,17.578,25.879,-14.160,0
1540168156.112,25.391,21.484,19.043,13.184,-2.441,0
1540168156.116,32.227,23.926,20.996,19.531,-4.883,0
1540168156.120,27.832,22.949,23.926,17.578,7.324,0
1540168156.123,5.371,23.438,13.672,14.160,14.160,0
1540168156.127,6.836,25.391,8.789,13.672,6.836,0
1540168156.131,23.926,24.414,15.137,13.184,40.527,0
1540168156.135,21.484,28.809,12.695,12.695,32.227,0
1540168156.139,17.090,29.297,18.066,12.695,9.277,0
1540168156.143,4.395,20.508,15.137,12.207,54.688,0
1540168156.147,5.859,23.926,21.973,14.648,47.852,0
1540168156.151,20.020,29.785,27.344,15.137,24.902,0
1540168156.155,17.090,28.809,26.367,14.648,57.617,0
1540168156.159,12.207,25.391,29.297,20.508,62.012,0
1540168156.163,16.602,27.344,27.344,17.090,18.066,0
1540168156.166,19.531,28.320,22.461,6.836,3.418,0
1540168156.170,19.531,22.461,23.926,8.789,0.488,0
1540168156.174,17.578,26.367,25.879,8.301,1.465,0
1540168156.178,17.578,31.738,15.625,3.906,32.715,0
1540168156.182,20.996,24.414,13.184,6.836,79.102,0
1540168156.186,18.555,20.020,20.996,12.207,23.926,0
1540168156.190,17.578,22.949,19.043,20.508,8.789,0
1540168156.194,20.508,29.297,21.484,34.180,-0.488,0
1540168156.198,24.902,31.250,12.695,35.645,10.254,0
1540168156.202,27.344,25.879,17.578,30.273,61.035,0
1540168156.205,20.996,28.809,40.039,36.621,35.645,0
1540168156.209,21.973,34.668,39.551,35.645,50.781,0
1540168156.213,33.203,37.598,24.414,34.180,71.777,0
1540168156.217,35.156,37.598,12.207,40.039,9.277,0
1540168156.221,25.391,31.738,27.344,39.062,-47.363,0
1540168156.225,17.578,35.645,37.598,30.762,-33.691,0
1540168156.229,22.949,32.227,33.203,26.855,-45.410,0
1540168156.233,35.156,22.461,20.996,29.785,-39.551,0
1540168156.237,31.738,23.926,20.020,29.297,21.484,0
1540168156.241,23.438,23.438,33.691,24.414,59.082,0
1540168156.245,32.227,26.855,31.250,21.484,34.180,0
1540168156.248,44.922,31.250,35.156,23.438,6.348,0
1540168156.252,47.852,30.762,29.785,16.113,-2.441,0
1540168156.256,37.598,27.344,20.020,6.836,-68.848,0
1540168156.260,39.551,25.879,29.785,16.602,-2.930,0
1540168156.264,51.270,23.926,32.715,20.020,58.594,0
1540168156.268,49.805,21.973,31.738,11.719,44.922,0
1540168156.272,34.180,24.414,25.391,19.043,26.367,0
1540168156.276,23.926,25.391,17.578,34.668,24.902,0
1540168156.280,28.809,23.438,34.668,40.039,17.578,0
1540168156.284,30.273,19.043,31.738,38.086,13.184,0
1540168156.288,25.391,19.531,16.602,36.621,20.996,0
1540168156.291,22.461,27.832,27.344,33.691,46.875,0
1540168156.295,23.438,25.879,34.180,33.203,95.215,0
1540168156.299,30.273,23.926,37.598,33.203,79.590,0
1540168156.303,23.438,27.344,34.668,22.949,76.172,0
1540168156.307,18.066,35.645,23.926,20.996,62.500,0
1540168156.311,26.367,36.621,21.484,20.996,11.719,0
1540168156.315,32.227,32.227,30.273,22.949,12.207,0
1540168156.319,24.902,34.180,31.250,23.926,21.973,0
1540168156.323,14.160,33.203,21.484,19.531,48.828,0
1540168156.327,17.578,35.156,20.020,26.367,47.363,0
1540168156.330,30.273,38.574,23.926,29.785,-3.418,0
1540168156.334,30.273,39.551,25.391,21.484,-19.531,0
1540168156.338,20.508,35.645,23.438,19.043,0.977,0
1540168156.342,20.020,29.297,18.555,22.949,51.758,0
1540168156.346,29.297,37.109,27.832,28.809,28.809,0
1540168156.350,29.785,39.551,35.156,28.320,21.484,0
1540168156.354,20.996,36.133,31.738,25.391,75.684,0
1540168156.358,16.113,34.668,24.414,23.926,26.367,0
1540168156.362,19.531,30.762,19.531,19.531,-38.574,0
1540168156.366,29.785,31.738,21.973,21.484,-22.949,0
1540168156.370,23.438,34.180,27.344,19.043,62.988,0
1540168156.373,15.625,34.180,26.855,18.066,102.539,0
1540168156.377,24.902,36.133,25.391,23.438,42.480,0
1540168156.381,34.668,36.621,26.367,23.926,-13.672,0
1540168156.385,36.133,36.133,25.391,23.926,-0.977,0
1540168156.389,33.203,41.504,19.531,26.855,39.551,0
1540168156.393,31.738,41.504,14.160,22.949,35.156,0
1540168156.397,40.527,42.480,10.254,29.785,40.039,0
1540168156.401,42.969,45.898,13.184,29.297,65.430,0
1540168156.405,25.879,35.645,26.367,25.391,38.574,0
1540168156.409,16.113,28.809,28.320,28.320,20.508,0
1540168156.413,21.973,32.715,25.879,26.855,68.848,0
1540168156.416,26.367,32.227,25.879,22.949,98.145,0
1540168156.420,26.855,31.250,24.414,21.973,24.902,0
1540168156.424,25.391,35.156,22.461,22.949,21.973,0
1540168156.428,25.391,40.039,20.508,18.555,33.203,0
1540168156.432,34.668,36.621,21.973,13.184,60.547,0
1540168156.436,27.832,29.785,22.949,16.113,62.012,0
1540168156.440,19.531,35.156,22.949,20.020,10.254,0
1540168156.444,24.902,34.180,19.531,25.879,37.109,0
1540168156.448,30.273,26.855,8.301,25.391,-13.672,0
1540168156.452,28.809,30.273,19.531,15.137,-23.926,0
1540168156.455,21.484,35.645,32.227,22.949,23.438,0
1540168156.459,20.508,33.203,23.926,30.762,9.277,1
1540168156.463,27.344,30.762,32.227,20.996,0.488,0
1540168156.467,30.273,31.738,42.969,15.625,-42.480,0
1540168156.471,24.414,33.691,37.109,19.531,7.324,0
1540168156.475,30.762,36.621,35.156,20.996,10.254,0
1540168156.479,42.969,36.133,27.832,38.086,0.488,0
1540168156.483,59.082,38.086,24.902,43.945,-9.766,0
1540168156.487,51.758,42.480,29.297,21.973,-13.184,0
1540168156.491,21.973,39.551,31.250,13.672,22.949,0
1540168156.495,18.555,39.551,9.277,13.672,-1.465,0
1540168156.498,25.391,34.668,5.371,11.230,-33.691,0
1540168156.502,17.090,30.273,32.227,0.488,-7.812,0
1540168156.506,9.277,32.715,36.621,-2.441,-0.977,0
1540168156.510,14.160,35.156,36.621,14.160,28.320,0
1540168156.514,31.738,33.203,36.133,19.531,22.949,0
1540168156.518,37.109,33.203,34.668,14.648,6.348,0
1540168156.522,25.879,36.133,33.203,19.531,20.508,0
1540168156.526,21.484,35.156,34.180,28.809,0.488,0
1540168156.530,26.855,34.180,34.668,34.180,62.012,0
1540168156.534,34.180,35.645,31.738,29.785,46.387,0
1540168156.538,28.320,37.109,30.273,25.879,23.926,0
1540168156.541,26.367,37.598,29.785,26.367,66.895,0
1540168156.545,40.527,36.133,21.484,34.668,44.434,0
1540168156.549,43.945,34.668,22.461,38.574,56.152,0
1540168156.553,29.297,29.785,39.551,40.527,45.410,0
1540168156.557,26.367,28.809,37.109,36.133,40.527,0
1540168156.561,24.902,33.203,26.855,28.320,-4.883,0
1540168156.565,24.902,37.109,32.227,27.344,-9.277,0
1540168156.569,25.391,35.645,27.832,31.250,92.285,0
1540168156.573,15.137,32.715,18.555,29.297,127.441,0
1540168156.577,13.184,33.203,26.855,24.902,39.551,0
1540168156.580,23.926,22.949,34.180,36.133,-21.973,0
1540168156.584,27.832,23.926,29.785,34.180,44.922,0
1540168156.588,23.926,35.156,29.297,25.879,71.777,0
1540168156.592,25.879,36.621,19.531,31.738,23.926,0
1540168156.596,33.691,38.086,20.508,33.203,-2.930,0
1540168156.600,41.504,34.668,29.785,20.996,-36.621,0
1540168156.604,31.738,32.715,27.832,16.602,3.418,0
1540168156.608,25.879,31.738,27.344,24.902,52.734,0
1540168156.612,28.809,30.273,30.762,19.043,52.246,0
1540168156.616,26.367,30.762,30.762,16.113,25.391,0
1540168156.620,19.531,27.832,27.344,18.066,-0.488,0
1540168156.623,11.230,26.367,31.250,23.926,46.387,0
1540168156.627,23.926,30.762,29.785,35.156,87.402,0
1540168156.631,34.180,29.297,27.832,27.344,91.797,0
1540168156.635,31.250,25.391,30.762,21.973,74.219,0
1540168156.639,25.391,29.297,33.691,37.598,31.738,0
1540168156.643,22.949,31.250,29.785,46.387,15.137,0
1540168156.647,31.250,28.320,20.508,34.180,43.945,0
1540168156.651,34.180,30.762,27.344,29.785,-10.742,0
1540168156.655,29.297,34.180,39.062,39.062,9.766,0
1540168156.659,30.273,28.809,36.133,41.504,52.734,0
1540168156.663,37.109,23.926,23.926,33.691,51.270,0
1540168156.666,43.457,26.367,26.367,23.926,74.707,0
1540168156.670,40.039,30.762,35.156,27.832,48.828,0
1540168156.674,35.156,37.598,20.996,45.898,14.160,0
1540168156.678,42.480,32.227,15.625,39.551,-36.133,0
1540168156.682,46.875,26.855,30.762,32.715,-31.738,0
1540168156.686,30.762,30.273,42.969,24.414,22.949,0
1540168156.690,18.066,25.879,36.133,29.785,50.293,0
1540168156.694,27.832,21.973,33.203,29.297,47.363,0
1540168156.698,35.156,20.020,33.203,9.766,18.555,0
1540168156.702,33.691,22.949,30.762,12.207,30.273,0
1540168156.705,29.297,28.809,33.203,15.625,41.504,0
1540168156.709,25.879,30.762,26.855,14.160,33.691,0
1540168156.713,26.367,33.691,20.020,17.578,13.672,0
1540168156.717,30.762,31.738,19.043,29.785,27.344,0
1540168156.721,21.973,28.320,17.578,28.320,-4.395,0
1540168156.725,19.043,31.250,21.973,29.297,8.301,0
1540168156.729,27.832,30.762,25.879,26.367,91.309,0
1540168156.733,31.738,25.879,26.855,20.508,40.527,0
1540168156.737,27.344,24.414,32.715,18.555,-2.441,0
1540168156.741,25.391,28.809,33.203,17.090,28.809,0
1540168156.745,27.344,31.738,32.227,20.996,1.953,0
1540168156.748,27.344,30.273,30.273,22.461,-46.875,0
1540168156.752,29.297,28.320,29.297,22.461,-16.602,0
1540168156.756,30.273,27.832,28.320,30.273,6.836,0
1540168156.760,34.668,32.227,22.949,34.668,45.410,0
1540168156.764,32.715,30.273,24.414,25.879,64.453,0
1540168156.768,28.809,29.785,27.832,21.484,29.297,0
1540168156.772,27.344,35.156,26.855,24.414,28.809,0
1540168156.776,21.973,32.715,27.832,28.320,-17.578,0
1540168156.780,25.879,33.203,24.414,30.273,15.625,0
1540168156.784,38.574,37.109,21.973,28.809,22.461,0
1540168156.788,33.691,33.203,29.785,29.297,5.859,0
1540168156.791,28.809,32.715,37.598,26.367,-5.371,0
1540168156.795,36.621,35.645,33.203,31.738,-23.926,0
1540168156.799,36.133,34.668,25.879,31.738,36.621,0
1540168156.803,30.273,33.203,26.367,20.508,30.762,0
1540168156.807,30.273,32.715,29.297,19.043,55.664,0
1540168156.811,37.598,30.762,25.879,29.297,31.738,0
1540168156.815,38.574,29.785,19.531,28.809,56.152,0
1540168156.819,34.180,28.320,28.320,29.297,81.055,0
1540168156.823,29.297,26.367,30.273,35.156,47.852,0
1540168156.827,32.227,30.762,24.902,38.086,22.461,0
1540168156.830,35.645,33.691,29.297,29.785,47.363,0
1540168156.834,27.344,27.344,25.879,15.625,69.824,0
1540168156.838,15.137,22.461,23.926,16.602,61.523,0
1540168156.842,12.695,24.414,33.203,23.438,75.195,0
1540168156.846,23.926,26.367,32.715,24.902,40.527,0
1540168156.850,31.738,26.367,27.344,24.902,36.133,0
1540168156.854,28.320,25.391,33.691,22.949,24.902,0
1540168156.858,25.879,24.902,29.297,22.461,30.273,0
1540168156.862,29.297,26.855,23.438,25.391,76.660,0
1540168156.866,36.621,31.738,32.715,23.438,8.789,0
1540168156.870,37.109,29.785,31.250,20.508,-47.363,0
1540168156.873,29.297,24.902,22.949,25.879,-41.504,0
1540168156.877,28.320,29.785,21.484,25.879,-16.113,0
1540168156.881,32.227,32.715,21.484,19.531,31.738,0
1540168156.885,29.297,32.227,20.996,14.160,46.875,0
1540168156.889,26.855,30.273,26.367,19.043,2.930,0
1540168156.893,21.973,26.367,25.879,25.879,10.742,0
1540168156.897,21.973,26.367,21.973,16.602,7.324,0
1540168156.901,30.273,30.273,22.949,19.531,6.348,0
1540168156.905,20.996,33.691,16.113,27.832,42.969,0
1540168156.909,11.719,33.203,27.344,25.879,0.000,0
1540168156.913,20.508,31.250,42.969,24.414,19.043,0
1540168156.916,31.250,26.367,38.086,22.461,44.922,0
1540168156.920,32.715,26.367,32.715,25.879,24.902,0
1540168156.924,21.973,24.902,30.273,25.879,-1.465,0
1540168156.928,21.973,23.438,27.832,30.273,11.230,0
1540168156.932,31.738,22.461,25.879,29.297,65.430,0
1540168156.936,24.902,22.461,23.438,19.531,30.273,0
1540168156.940,13.672,21.484,21.484,18.555,-13.184,0
1540168156.944,17.578,22.461,18.555,18.066,8.301,0
1540168156.948,24.902,25.879,22.461,15.625,46.875,0
1540168156.952,22.949,23.926,31.250,13.184,59.082,0
1540168156.955,20.020,26.367,27.344,14.648,48.340,0
1540168156.959,21.484,30.762,24.902,24.414,19.043,0
1540168156.963,31.250,26.367,25.879,28.809,-1.953,0
1540168156.967,32.227,25.879,23.438,24.902,70.312,0
1540168156.971,21.484,30.273,18.555,27.344,84.473,0
1540168156.975,18.555,28.809,14.648,34.668,57.617,0
1540168156.979,23.926,26.367,17.578,28.320,92.773,0
1540168156.983,26.367,28.809,23.438,12.207,17.578,0
1540168156.987,17.578,32.715,25.391,10.742,-36.133,0
1540168156.991,13.184,29.297,20.508,24.414,6.348,0
1540168156.995,22.949,23.438,21.484,20.508,58.105,0
1540168156.998,31.250,26.855,28.320,11.230,41.992,0
1540168157.002,30.762,33.203,28.320,14.160,4.395,0
1540168157.006,29.297,34.668,28.809,18.555,43.945,0
1540168157.010,31.738,32.715,28.809,31.250,45.898,0
1540168157.014,40.527,30.762,25.391,30.762,8.789,0
1540168157.018,36.621,28.809,20.020,16.113,-15.137,0
1540168157.022,17.090,24.414,19.531,20.020,-8.301,0
1540168157.026,21.484,24.414,25.391,29.297,-7.324,0
1540168157.030,33.203,25.391,26.855,21.484,-20.020,0
1540168157.034,28.320,22.461,20.996,14.160,18.066,0
1540168157.038,25.879,25.391,25.879,20.508,46.387,0
1540168157.041,24.902,21.484,24.414,20.508,71.289,0
1540168157.045,30.273,12.207,15.625,24.414,68.848,0
1540168157.049,44.922,20.996,14.648,27.832,14.160,0
1540168157.053,40.039,30.762,18.066,28.809,-37.109,1
1540168157.057,22.949,33.203,20.508,24.902,3.418,0
1540168157.061,15.137,29.785,16.113,18.066,-8.301,0
1540168157.065,24.414,24.414,16.602,17.578,-14.160,0
1540168157.069,28.809,28.809,20.996,19.531,34.668,0
1540168157.073,20.020,33.691,21.973,39.062,1.465,0
1540168157.077,20.020,27.344,21.484,31.738,30.762,0
1540168157.080,24.902,20.996,22.949,10.742,16.113,0
1540168157.084,27.344,18.066,23.438,10.254,3.418,0
1540168157.088,25.879,16.602,32.227,21.484,22.461,0
1540168157.092,21.484,18.555,29.785,34.180,35.645,0
1540168157.096,27.344,20.996,15.137,25.391,14.160,0
1540168157.100,38.574,23.438,17.578,20.508,15.625,0
1540168157.104,30.273,28.809,20.020,29.297,56.641,0
1540168157.108,22.461,28.320,22.949,30.273,57.129,0
1540168157.112,24.414,24.414,20.996,15.137,79.102,0
1540168157.116,27.344,23.926,15.137,18.066,63.965,0
1540168157.120,27.344,25.879,19.531,27.832,44.922,0
1540168157.123,20.996,25.391,28.320,26.855,51.270,0
1540168157.127,22.461,20.508,30.762,32.227,42.969,0
1540168157.131,33.691,24.902,26.855,31.250,4.883,0
1540168157.135,30.762,27.832,28.320,18.555,-0.488,0
1540168157.139,15.625,23.438,23.438,12.207,41.992,0
1540168157.143,14.648,20.508,16.602,20.020,12.207,0
1540168157.147,26.367,24.902,16.113,17.578,-10.742,0
1540168157.151,35.645,27.832,12.207,11.719,37.598,0
1540168157.155,24.902,23.926,17.578,20.508,39.551,0
1540168157.159,15.625,23.926,33.203,24.902,52.246,0
1540168157.163,31.250,26.367,36.133,31.250,12.207,0
1540168157.166,45.410,24.414,26.855,32.715,8.301,0
1540168157.170,45.410,26.855,29.297,31.738,34.668,0
1540168157.174,49.805,36.133,29.785,37.109,-7.324,0
1540168157.178,60.059,35.156,26.367,40.039,10.254,0
1540168157.182,67.871,26.855,27.344,38.574,43.457,0
1540168157.186,64.453,24.902,27.344,36.621,49.805,0
1540168157.190,48.828,26.855,29.785,37.109,32.715,0
1540168157.194,32.227,28.809,29.297,40.527,-8.301,0
1540168157.198,27.344,26.855,30.762,44.434,7.324,0
1540168157.202,25.391,22.949,20.996,32.227,51.270,0
1540168157.205,24.414,22.949,21.973,29.297,55.176,0
1540168157.209,26.367,27.344,30.762,34.668,38.574,0
1540168157.213,28.809,27.344,31.250,30.273,34.180,0
1540168157.217,36.133,26.855,31.250,28.809,11.719,0
1540168157.221,32.227,25.879,24.414,27.832,-32.715,0
1540168157.225,27.832,27.344,26.367,28.320,-10.742,0
1540168157.229,30.762,32.227,29.785,32.227,43.457,0
1540168157.233,26.855,35.645,31.250,32.715,43.945,0
1540168157.237,16.602,33.203,28.320,26.367,21.484,0
1540168157.241,15.137,31.250,24.902,28.320,1.953,0
1540168157.245,19.043,31.738,20.020,23.438,19.531,0
1540168157.248,22.949,29.785,20.020,14.648,27.344,0
1540168157.252,18.066,28.320,21.484,15.137,63.477,0
1540168157.256,8.301,27.344,18.066,18.066,87.402,0
1540168157.260,18.555,27.832,22.461,18.066,18.066,0
1540168157.264,28.320,30.762,30.273,15.137,-33.691,0
1540168157.268,31.250,33.203,31.738,17.090,0.000,0
1540168157.272,30.762,35.156,15.137,31.738,31.738,0
1540168157.276,22.461,28.320,0.000,29.297,50.781,0
1540168157.280,27.832,21.973,19.043,18.066,46.387,0
1540168157.284,36.133,24.414,37.598,20.020,76.660,0
1540168157.288,28.809,30.273,32.715,23.926,80.078,0
1540168157.291,21.973,30.762,31.250,26.855,42.969,0
1540168157.295,20.996,21.484,30.273,32.715,80.566,0
1540168157.299,29.297,22.949,23.438,33.691,38.086,0
1540168157.303,30.762,25.879,22.461,26.855,35.645,0
1540168157.307,25.391,22.949,30.762,22.461,46.875,0
1540168157.311,29.297,22.461,30.762,23.438,43.945,0
1540168157.315,38.086,20.508,23.438,27.344,53.711,0
1540168157.319,37.598,22.949,20.996,24.414,58.105,0
1540168157.323,37.598,24.414,20.996,21.484,89.355,0
1540168157.327,37.598,24.414,27.344,23.438,-2.441,0
1540168157.330,38.086,24.902,33.203,31.738,4.883,0
1540168157.334,41.504,21.973,33.203,37.598,64.453,0
1540168157.338,34.180,23.438,34.180,29.785,40.527,0
1540168157.342,30.762,28.809,34.668,32.715,10.254,0
1540168157.346,37.598,30.762,34.668,33.691,-4.395,0
1540168157.350,45.410,32.227,30.762,29.297,30.762,0
1540168157.354,33.691,30.762,24.902,24.902,7.324,0
1540168157.358,22.949,28.809,26.367,20.020,37.598,0
1540168157.362,28.809,32.715,24.414,20.508,76.172,0
1540168157.366,37.598,36.133,25.391,20.996,15.137,0
1540168157.370,36.621,34.668,30.273,17.090,7.324,0
1540168157.373,30.273,34.180,34.668,18.555,48.340,0
1540168157.377,34.668,33.691,26.367,23.926,81.055,0
1540168157.381,43.457,32.715,20.020,23.438,90.332,0
1540168157.385,42.480,27.344,30.273,23.438,101.074,0
1540168157.389,32.715,23.926,35.156,28.320,55.664,0
1540168157.393,32.715,30.273,32.227,31.250,52.734,0
1540168157.397,40.527,28.320,33.203,22.949,76.172,0
1540168157.401,41.016,28.809,27.832,17.090,13.184,0
1540168157.405,32.715,32.227,18.066,29.297,12.207,0
1540168157.409,26.855,27.344,19.043,29.297,27.832,0
1540168157.413,28.320,22.949,25.391,13.672,22.461,0
1540168157.416,34.180,24.414,28.320,11.230,18.066,0
1540168157.420,34.180,23.438,28.809,8.301,-8.789,0
1540168157.424,31.250,18.066,33.691,7.812,17.578,0
1540168157.428,33.203,20.508,32.715,14.648,62.012,0
1540168157.432,39.551,26.367,26.855,17.090,25.391,0
1540168157.436,39.551,28.320,26.855,14.648,-20.020,0
1540168157.440,32.715,29.297,25.879,20.020,24.902,0
1540168157.444,32.227,27.344,26.367,28.809,80.078,0
1540168157.448,38.086,27.832,25.391,28.320,9.277,0
1540168157.452,34.668,28.809,24.414,23.926,1.953,0
1540168157.455,24.902,25.879,27.344,33.691,67.871,0
1540168157.459,28.320,24.902,25.391,40.039,10.742,0
1540168157.463,35.156,21.973,23.926,26.855,-20.020,0
1540168157.467,37.598,20.996,26.367,24.414,-41.504,0
1540168157.471,32.715,23.438,31.738,33.691,-29.785,0
1540168157.475,28.809,22.461,35.645,39.062,26.855,0
1540168157.479,31.738,20.508,28.320,31.250,34.180,0
1540168157.483,32.227,18.555,20.996,22.461,58.105,0
1540168157.487,28.809,18.555,19.531,19.043,67.871,0
1540168157.491,21.973,18.555,18.555,14.648,15.137,0
1540168157.495,27.344,13.184,29.785,26.855,-33.203,0
1540168157.498,41.016,11.230,33.203,31.250,-10.254,0
1540168157.502,32.227,15.137,28.320,18.066,2.441,0
1540168157.506,16.113,15.137,23.438,18.066,33.203,0
1540168157.510,16.113,12.207,18.066,26.855,21.973,0
1540168157.514,23.926,15.625,29.297,31.738,-33.203,0
1540168157.518,20.020,14.160,31.250,31.738,-12.695,0
1540168157.522,14.160,9.766,25.879,28.320,45.898,0
1540168157.526,20.996,14.160,21.973,26.855,48.828,0
1540168157.530,30.762,17.578,16.602,31.250,7.324,0
1540168157.534,36.621,14.160,31.250,27.832,25.391,0
1540168157.538,25.879,8.789,31.250,26.367,36.133,0
1540168157.541,13.184,10.254,8.301,13.184,51.758,0
1540168157.545,12.695,8.301,18.555,30.762,59.570,0
1540168157.549,17.090,7.324,38.086,39.062,56.152,0
1540168157.553,19.531,12.207,37.598,15.137,38.574,0
1540168157.557,21.484,17.090,33.691,17.578,11.719,0
1540168157.561,20.508,15.137,24.414,16.602,-9.277,0
1540168157.565,25.879,11.230,18.555,15.137,62.012,0
1540168157.569,32.715,10.742,20.020,26.855,79.102,0
1540168157.573,29.297,17.090,25.391,25.391,-9.766,0
1540168157.577,21.973,20.020,19.043,24.414,-20.020,0
1540168157.580,25.391,15.625,16.602,24.902,25.879,0
1540168157.584,25.391,13.184,21.484,11.719,43.457,0
1540168157.588,12.207,13.184,16.602,11.230,-19.531,0
1540168157.592,11.230,9.277,21.973,17.578,-60.059,0
1540168157.596,28.320,11.230,27.344,29.297,-24.414,0
1540168157.600,31.250,13.184,20.996,20.508,62.500,0
1540168157.604,14.160,11.719,22.949,14.648,79.102,0
1540168157.608,12.695,14.160,39.551,29.297,27.344,0
1540168157.612,23.926,6.836,36.133,12.207,0.977,0
1540168157.616,25.879,4.883,20.996,1.465,54.199,0
1540168157.620,22.949,14.160,20.020,10.742,128.906,0
1540168157.623,19.043,17.578,17.090,11.719,64.941,0
1540168157.627,23.438,16.602,30.762,19.531,30.762,0
1540168157.631,34.668,17.578,41.016,19.043,65.430,0
1540168157.635,32.227,17.578,23.926,21.973,56.152,0
1540168157.639,24.902,13.672,20.996,32.227,58.594,0
1540168157.643,23.438,14.648,30.762,18.555,12.695,0
1540168157.647,30.273,19.043,28.320,15.137,-48.828,0
1540168157.651,34.668,19.043,20.020,31.250,-21.973,0
1540168157.655,28.320,21.484,13.184,40.039,7.812,0
1540168157.659,28.809,22.461,18.066,27.832,9.277,0
1540168157.663,28.320,19.531,25.391,11.719,47.363,0
1540168157.666,28.320,15.137,16.113,16.113,23.926,0
1540168157.670,20.020,19.531,11.230,20.996,6.348,0
1540168157.674,11.719,24.414,20.020,19.531,34.180,0
1540168157.678,30.273,22.461,37.109,33.691,-3.906,0
1540168157.682,43.945,22.949,35.645,38.086,-34.180,0
1540168157.686,30.762,19.531,9.277,23.926,4.883,0
1540168157.690,19.531,15.625,10.254,16.602,32.227,0
1540168157.694,24.414,15.137,33.691,23.438,43.945,0
1540168157.698,32.227,10.742,35.645,29.785,19.531,0
1540168157.702,30.273,12.695,25.391,26.367,10.254,0
1540168157.705,31.738,19.043,16.602,20.508,55.176,0
1540168157.709,34.180,20.508,20.996,21.973,33.691,0
1540168157.713,27.344,20.508,32.227,16.602,-3.418,0
1540168157.717,30.762,21.973,37.109,17.578,-6.348,0
1540168157.721,32.715,21.484,22.949,23.926,-16.602,0
1540168157.725,27.344,19.531,13.184,24.414,14.648,0
1540168157.729,31.738,18.066,18.555,38.574,47.363,0
1540168157.733,34.668,11.230,22.461,35.645,29.297,0
1540168157.737,30.273,8.789,26.367,12.207,9.766,0
1540168157.741,33.203,14.648,23.926,18.555,61.035,0
1540168157.745,40.039,19.531,29.297,27.344,15.137,0
1540168157.748,36.133,20.020,30.273,19.043,-18.555,0
1540168157.752,29.297,19.531,23.438,29.297,13.184,0
1540168157.756,20.020,20.020,23.926,29.785,36.133,0
1540168157.760,15.625,19.043,27.344,21.973,44.434,0
1540168157.764,22.461,17.578,22.949,26.855,-13.672,0
1540168157.768,27.344,20.508,15.625,29.785,-18.066,0
1540168157.772,24.414,23.438,21.484,21.973,38.574,0
1540168157.776,22.949,22.949,31.738,16.602,43.945,0
1540168157.780,29.785,23.438,30.762,25.391,19.531,0
1540168157.784,33.203,21.973,27.832,28.320,20.996,1
1540168157.788,26.855,20.508,29.785,24.414,-1.465,0
1540168157.791,29.297,20.508,28.320,32.227,-8.789,0
1540168157.795,39.551,20.996,24.902,39.062,20.508,0
1540168157.799,42.969,21.973,24.414,29.785,106.934,0
1540168157.803,37.109,19.531,25.879,23.926,44.922,0
1540168157.807,26.367,20.020,24.902,20.508,-48.828,0
1540168157.811,22.949,20.020,22.949,26.855,26.367,0
1540168157.815,30.273,16.113,16.113,32.715,40.039,0
1540168157.819,27.832,13.184,3.418,23.438,47.363,0
1540168157.823,14.160,16.113,13.184,20.996,54.199,0
1540168157.827,17.090,19.531,30.273,16.113,43.945,0
1540168157.830,31.738,21.973,28.320,22.461,31.738,0
1540168157.834,37.598,22.461,20.508,33.691,12.207,0
1540168157.838,28.809,23.438,27.344,35.156,-13.672,0
1540168157.842,25.879,19.043,36.621,25.879,-11.230,0
1540168157.846,34.668,16.113,25.391,20.020,60.547,0
1540168157.850,32.227,20.508,27.344,20.020,16.113,0
1540168157.854,20.020,21.484,26.855,28.320,11.719,0
1540168157.858,16.602,22.461,4.395,29.297,53.223,0
1540168157.862,24.414,27.344,15.137,23.438,40.039,0
1540168157.866,28.320,30.273,22.949,24.414,25.391,0
1540168157.870,21.973,30.273,24.414,19.043,-32.227,0
1540168157.873,20.020,27.344,33.203,22.461,-50.781,0
1540168157.877,24.414,23.926,32.227,27.832,-5.371,0
1540168157.881,27.344,24.902,29.297,27.832,-34.668,0
1540168157.885,32.715,22.949,25.391,27.832,12.695,0
1540168157.889,28.809,18.555,35.156,31.738,89.844,0
1540168157.893,25.391,20.508,35.156,37.109,60.059,0
1540168157.897,41.016,23.926,34.180,45.898,34.180,0
1540168157.901,48.828,27.344,30.762,40.527,6.836,0
1540168157.905,32.715,27.832,12.207,23.438,40.527,0
1540168157.909,17.090,30.762,13.672,21.973,58.105,0
1540168157.913,20.020,30.273,17.578,23.926,40.039,0
1540168157.916,28.320,31.250,19.043,18.555,38.574,0
1540168157.920,24.414,31.738,20.508,16.602,50.781,0
1540168157.924,16.602,31.250,14.648,27.832,42.969,0
1540168157.928,20.020,26.367,19.043,32.715,89.844,0
1540168157.932,34.668,20.996,27.344,24.414,98.145,0
1540168157.936,28.809,30.273,32.227,22.461,73.730,0
1540168157.940,19.043,37.109,26.367,24.902,45.898,0
1540168157.944,21.484,37.598,22.461,21.484,-17.578,0
1540168157.948,23.926,32.227,21.484,13.672,39.062,0
1540168157.952,24.414,28.809,7.812,13.672,75.195,0
1540168157.955,23.438,28.809,14.160,27.344,12.695,0
1540168157.959,29.297,24.902,30.273,30.273,4.883,0
1540168157.963,36.621,23.926,36.621,32.227,23.926,0
1540168157.967,38.086,21.973,32.715,37.109,-13.672,0
1540168157.971,30.273,19.531,27.832,30.273,51.270,0
1540168157.975,24.902,17.578,33.203,25.391,64.453,0
1540168157.979,31.738,20.996,31.250,29.297,1.465,0
1540168157.983,29.785,26.855,21.484,24.902,4.395,0
1540168157.987,22.949,24.414,20.996,22.461,56.152,0
1540168157.991,18.066,22.461,24.902,25.879,-5.859,0
1540168157.995,18.066,22.949,16.113,20.508,-30.273,0
1540168157.998,23.438,22.949,12.207,15.625,38.086,0
1540168158.002,23.926,20.020,19.531,23.926,3.418,0
1540168158.006,19.531,17.578,18.555,35.645,22.461,0
1540168158.010,20.020,23.438,10.742,29.297,59.082,0
1540168158.014,29.785,30.273,4.395,23.438,36.621,0
1540168158.018,37.109,34.668,16.113,25.391,27.832,0
1540168158.022,25.391,30.762,28.809,19.531,23.926,0
1540168158.026,13.672,18.066,24.414,12.207,50.293,0
1540168158.030,21.973,18.066,25.879,19.043,93.262,0
1540168158.034,28.320,30.273,26.855,27.344,112.305,0
1540168158.038,18.066,26.367,17.578,12.695,22.949,0
1540168158.041,3.418,19.531,26.855,2.930,-7.324,0
1540168158.045,12.207,22.461,42.969,9.766,23.926,0
1540168158.049,26.367,20.996,38.086,12.207,48.340,0
1540168158.053,29.785,23.438,35.156,25.391,33.691,0
1540168158.057,26.855,26.855,29.297,37.598,-7.812,0
1540168158.061,32.715,32.715,33.203,35.645,7.812,0
1540168158.065,42.969,33.203,39.551,23.926,30.273,0
1540168158.069,41.016,33.691,34.668,21.973,20.996,0
1540168158.073,37.109,36.133,38.086,32.227,12.695,0
1540168158.077,38.086,32.227,35.156,22.461,33.203,0
1540168158.080,51.270,32.715,26.367,18.555,13.672,0
1540168158.084,58.105,30.762,13.184,18.066,15.625,0
1540168158.088,49.805,23.926,4.883,2.930,59.570,0
1540168158.092,49.805,29.297,31.738,3.418,50.293,0
1540168158.096,44.922,32.715,40.039,19.531,36.621,0
1540168158.100,37.598,27.344,29.297,32.227,0.488,0
1540168158.104,31.250,22.461,23.926,34.668,-21.484,0
1540168158.108,14.160,26.367,22.949,22.461,-2.930,0
1540168158.112,14.160,30.273,30.762,21.973,6.348,0
1540168158.116,20.508,23.438,34.180,20.996,34.180,0
1540168158.120,17.578,24.414,33.203,12.207,77.148,0
1540168158.123,15.137,30.273,29.785,19.043,46.387,0
1540168158.127,16.113,33.203,27.344,20.996,17.090,0
1540168158.131,21.484,32.227,21.484,22.949,38.086,0
1540168158.135,21.973,30.273,24.414,29.297,47.363,0
1540168158.139,9.766,22.949,31.250,19.531,88.379,0
1540168158.143,2.441,23.926,29.785,9.766,36.133,0
1540168158.147,26.855,31.738,26.367,12.207,25.391,0
1540168158.151,42.480,31.738,23.926,21.973,38.086,0
1540168158.155,27.344,34.180,31.738,22.461,8.789,0
1540168158.159,14.648,34.668,29.785,17.090,-3.418,0
1540168158.163,17.578,25.879,26.855,25.879,-10.254,0
1540168158.166,19.043,32.227,23.926,25.879,14.160,0
1540168158.170,21.973,38.574,24.414,17.090,29.297,0
1540168158.174,15.137,28.809,25.879,15.137,24.414,0
1540168158.178,-4.883,37.598,17.090,-5.859,43.457,0
1540168158.182,-5.371,42.969,19.531,-15.625,83.496,0
1540168158.186,-6.348,43.457,20.020,-12.695,63.477,0
1540168158.190,-28.320,51.758,5.371,-40.039,31.250,0
1540168158.194,-60.547,49.805,1.953,-69.824,67.383,0
1540168158.198,-58.105,38.574,11.230,-62.012,84.961,0
1540168158.202,-42.480,49.316,20.508,-45.898,21.484,0
1540168158.205,-53.223,66.406,16.602,-44.922,73.730,0
1540168158.209,-45.898,71.289,17.578,-41.992,96.680,0
1540168158.213,-36.133,68.359,16.602,-52.246,13.184,0
1540168158.217,-36.621,64.941,14.160,-46.387,9.766,0
1540168158.221,-44.922,67.383,14.160,-41.992,24.414,0
1540168158.225,-54.199,71.777,11.719,-58.594,24.414,0
1540168158.229,-52.246,70.312,12.207,-65.430,32.715,0
1540168158.233,-44.922,65.430,10.254,-55.664,-16.113,0
1540168158.237,-39.062,70.312,6.348,-42.480,-24.414,0
1540168158.241,-41.504,70.312,12.695,-41.504,24.902,0
1540168158.245,-33.203,55.664,19.531,-37.109,55.664,0
1540168158.248,-18.555,49.316,18.555,-28.320,36.621,0
1540168158.252,-19.043,45.410,22.461,-25.879,-25.391,0
1540168158.256,-27.344,37.598,24.902,-24.902,-9.766,0
1540168158.260,-13.184,33.691,17.090,-24.902,12.207,0
1540168158.264,9.277,35.645,18.066,-22.461,33.203,0
1540168158.268,2.441,35.156,27.344,-21.973,40.527,0
1540168158.272,-2.441,33.691,31.738,-3.418,8.789,0
1540168158.276,11.719,34.180,23.438,9.277,-4.395,0
1540168158.280,17.578,28.320,10.254,12.207,23.438,0
1540168158.284,20.508,20.508,17.090,13.184,25.391,0
1540168158.288,18.066,18.066,16.602,4.883,-21.484,0
1540168158.291,16.113,17.578,16.602,21.484,31.738,0
1540168158.295,26.367,13.184,19.043,24.414,35.645,0
1540168158.299,40.039,10.254,11.230,26.855,-4.395,0
1540168158.303,45.898,11.230,20.996,34.180,67.383,0
1540168158.307,40.039,12.207,25.391,24.902,49.316,0
1540168158.311,46.875,13.672,20.508,39.062,55.664,0
1540168158.315,61.035,11.230,18.555,57.617,90.332,0
1540168158.319,68.848,8.301,12.207,47.363,35.156,0
1540168158.323,66.406,9.766,16.602,43.945,36.133,0
1540168158.327,52.246,6.836,26.855,47.852,42.480,0
1540168158.330,55.176,1.953,28.809,49.316,21.973,0
1540168158.334,68.359,5.371,26.367,53.711,42.480,0
1540168158.338,64.453,7.812,28.809,57.129,83.984,0
1540168158.342,61.523,6.836,34.668,63.965,31.250,0
1540168158.346,61.035,7.324,28.320,65.430,22.949,0
1540168158.350,66.895,6.348,20.020,63.965,45.410,0
1540168158.354,69.824,7.324,27.344,64.453,55.176,0
1540168158.358,68.359,9.277,33.203,73.242,18.555,0
1540168158.362,70.312,9.277,30.273,67.871,10.254,0
1540168158.366,73.730,14.160,28.809,57.617,43.945,0
1540168158.370,74.219,15.625,25.879,61.035,10.254,0
1540168158.373,65.430,11.230,23.438,67.383,-53.223,0
1540168158.377,66.406,11.719,30.762,71.777,-37.109,0
1540168158.381,72.754,11.230,35.645,59.082,33.203,0
1540168158.385,69.824,9.277,30.273,58.594,53.223,0
1540168158.389,62.012,15.137,24.414,70.312,61.523,0
1540168158.393,59.570,17.578,29.297,75.195,26.367,0
1540168158.397,68.359,16.113,35.645,77.637,45.898,0
1540168158.401,72.266,17.578,30.762,64.941,77.637,0
1540168158.405,62.988,14.648,31.738,59.570,13.184,0
1540168158.409,54.199,14.648,28.809,53.223,-20.508,0
1540168158.413,61.035,19.043,26.367,53.223,6.348,0
1540168158.416,64.453,17.578,33.691,61.523,26.367,0
1540168158.420,57.129,16.113,38.086,63.965,29.297,0
1540168158.424,51.270,17.090,33.203,59.082,-4.395,1
1540168158.428,44.922,16.602,20.508,57.129,-37.598,0
1540168158.432,53.711,15.137,28.320,55.176,51.270,0
1540168158.436,62.500,18.555,36.621,57.129,83.496,0
1540168158.440,59.570,27.344,34.180,84.961,-6.348,0
1540168158.444,63.477,26.367,25.879,87.402,-4.395,0
1540168158.448,72.266,18.555,26.855,56.641,44.922,0
1540168158.452,70.312,10.742,40.039,40.527,44.434,0
1540168158.455,48.340,11.719,39.062,39.551,-15.625,0
1540168158.459,38.574,22.949,39.062,50.293,-21.484,0
1540168158.463,45.898,24.414,39.551,54.199,32.227,0
1540168158.467,50.293,22.949,35.156,52.246,2.441,0
1540168158.471,48.828,25.391,34.180,59.082,26.367,0
1540168158.475,52.246,26.855,29.297,63.477,52.734,0
1540168158.479,56.152,22.949,28.320,59.082,60.547,0
1540168158.483,51.758,16.113,31.738,58.105,32.227,0
1540168158.487,43.945,16.113,32.715,48.828,6.348,0
1540168158.491,35.156,21.973,32.715,36.133,26.855,0
1540168158.495,41.992,25.879,27.344,40.527,1.953,0
1540168158.498,49.316,21.484,26.367,37.598,9.277,0
1540168158.502,46.387,23.438,22.949,29.297,51.270,0
1540168158.506,40.527,24.902,19.043,27.344,41.992,0
1540168158.510,42.480,25.391,25.879,34.180,25.391,0
1540168158.514,49.805,27.832,33.203,45.410,11.719,0
1540168158.518,47.852,24.902,28.809,38.086,-11.719,0
1540168158.522,39.062,20.996,22.461,33.203,-11.719,0
1540168158.526,36.133,17.578,22.949,43.457,19.043,0
1540168158.530,45.410,19.043,18.066,45.898,8.301,0
1540168158.534,52.734,20.020,22.949,42.969,6.836,0
1540168158.538,40.527,18.555,28.809,45.898,32.227,0
1540168158.541,30.762,18.555,23.438,35.645,17.578,0
1540168158.545,33.691,14.648,22.949,28.320,-45.410,0
1540168158.549,35.156,15.625,20.996,29.785,17.578,0
1540168158.553,25.879,16.602,25.879,27.344,104.492,0
1540168158.557,23.438,19.043,24.902,29.297,51.758,0
1540168158.561,28.320,20.996,23.926,37.598,27.344,0
1540168158.565,26.855,15.625,27.344,40.039,44.434,0
1540168158.569,28.320,23.438,20.508,25.879,73.730,0
1540168158.573,24.902,27.832,17.090,20.508,61.523,0
1540168158.577,24.414,21.484,13.184,29.297,21.484,0
1540168158.580,35.156,20.020,8.301,34.668,21.484,0
1540168158.584,32.227,20.996,16.602,27.832,-18.555,0
1540168158.588,20.508,22.461,32.715,26.367,-23.926,0
1540168158.592,18.066,22.949,27.832,29.297,7.812,0
1540168158.596,26.855,23.926,21.484,29.785,-12.207,0
1540168158.600,35.645,22.949,28.809,31.738,21.484,0
1540168158.604,37.598,26.855,27.344,34.668,62.988,0
1540168158.608,29.297,28.320,18.555,32.715,77.637,0
1540168158.612,33.203,24.414,12.207,34.668,39.062,0
1540168158.616,48.340,30.273,12.695,39.062,1.953,0
1540168158.620,43.457,33.203,20.996,47.852,32.715,0
1540168158.623,37.598,25.879,20.996,49.805,46.875,0
1540168158.627,37.598,27.344,22.949,35.645,6.348,0
1540168158.631,31.250,27.344,24.414,21.973,17.578,0
1540168158.635,25.879,22.461,28.809,21.484,37.598,0
1540168158.639,23.926,21.973,29.297,25.391,22.461,0
1540168158.643,29.785,22.949,18.555,23.438,76.172,0
1540168158.647,41.016,25.391,10.742,24.902,59.082,0
1540168158.651,38.086,28.809,13.184,22.461,54.688,0
1540168158.655,31.738,30.273,27.832,24.414,75.684,0
1540168158.659,22.949,30.273,27.344,25.391,32.715,0
1540168158.663,18.066,24.902,23.438,26.855,32.227,0
1540168158.666,23.438,26.367,23.438,36.133,33.691,0
1540168158.670,26.367,34.180,4.395,35.156,18.066,0
1540168158.674,18.066,26.367,1.465,22.461,9.766,0
1540168158.678,22.461,18.066,25.879,20.508,10.742,0
1540168158.682,32.715,22.949,42.480,22.461,18.555,0
1540168158.686,24.414,28.809,36.621,22.949,39.551,0
1540168158.690,19.531,27.344,24.902,19.043,16.113,0
1540168158.694,28.809,30.273,11.230,15.625,-29.785,0
1540168158.698,39.551,35.156,12.695,21.973,3.418,0
1540168158.702,41.504,28.320,21.973,24.414,19.531,0
1540168158.705,38.574,24.414,25.391,31.738,60.547,0
1540168158.709,30.762,31.250,28.809,36.621,59.570,0
1540168158.713,21.973,31.250,27.832,29.785,57.129,0
1540168158.717,21.973,24.902,20.996,37.109,18.555,0
1540168158.721,20.020,24.414,19.043,36.133,19.043,0
1540168158.725,23.438,28.809,13.672,29.297,42.969,0
1540168158.729,27.832,26.855,12.695,22.949,15.137,0
1540168158.733,28.320,21.484,18.555,12.695,42.969,0
1540168158.737,24.414,20.020,25.391,11.719,89.355,0
1540168158.741,12.695,17.090,20.996,11.230,43.945,0
1540168158.745,12.207,19.043,10.254,19.043,9.277,0
1540168158.748,23.926,23.438,12.695,30.273,31.738,0
1540168158.752,25.879,22.949,26.855,35.645,-61.523,0
1540168158.756,11.230,20.996,33.203,33.203,-5.859,0
1540168158.760,12.695,23.926,20.020,26.367,47.363,0
1540168158.764,33.203,26.855,17.578,32.715,-1.465,0
1540168158.768,35.645,24.414,21.484,32.715,23.926,0
1540168158.772,30.762,23.926,14.648,39.551,63.965,0
1540168158.776,33.691,25.391,17.090,40.039,38.086,0
1540168158.780,29.785,24.902,25.391,19.531,22.949,0
1540168158.784,34.180,28.809,28.320,15.137,25.879,0
1540168158.788,37.109,29.297,20.996,16.602,4.395,0
1540168158.791,29.297,27.344,19.531,20.020,33.691,0
1540168158.795,29.785,26.855,22.461,26.367,31.738,0
1540168158.799,41.016,22.461,16.602,28.320,25.879,0
1540168158.803,36.133,24.902,21.973,24.902,-7.812,0
1540168158.807,20.508,27.344,28.809,24.902,-0.977,0
1540168158.811,21.973,24.902,29.297,33.691,76.172,0
1540168158.815,32.715,20.508,25.879,30.762,13.672,0
1540168158.819,39.062,20.508,31.738,25.391,-26.367,0
1540168158.823,31.250,22.949,29.297,16.602,22.461,0
1540168158.827,28.320,20.020,17.090,0.488,12.695,0
1540168158.830,42.480,20.508,20.996,11.719,10.742,0
1540168158.834,41.992,24.414,28.320,24.902,90.332,0
1540168158.838,22.461,22.461,36.621,26.367,84.961,0
1540168158.842,16.113,20.020,37.109,38.086,71.289,0
1540168158.846,25.879,18.555,34.668,34.180,95.215,0
1540168158.850,34.668,17.578,33.691,22.461,56.641,0
1540168158.854,35.645,19.043,29.785,26.855,44.434,0
1540168158.858,31.250,20.508,24.414,30.273,57.129,0
1540168158.862,28.320,19.043,21.973,27.344,35.156,0
1540168158.866,32.227,16.602,17.578,19.043,44.434,0
1540168158.870,30.273,17.090,21.484,18.066,45.410,0
1540168158.873,22.461,19.043,25.391,29.297,5.371,0
1540168158.877,23.438,21.973,22.949,39.551,-24.902,0
1540168158.881,33.691,20.020,18.555,36.133,23.926,0
1540168158.885,33.691,22.949,15.137,23.438,24.414,0
1540168158.889,23.438,22.461,22.949,19.043,-13.672,0
1540168158.893,28.809,14.648,27.344,21.973,-29.297,0
1540168158.897,42.969,15.137,14.648,21.484,-20.020,0
1540168158.901,39.551,20.020,2.930,16.113,37.109,0
1540168158.905,29.785,16.602,1.953,21.973,58.105,0
1540168158.909,21.484,6.836,24.414,31.250,67.871,0
1540168158.913,19.043,11.719,47.852,28.320,7.324,0
1540168158.916,23.926,21.973,41.992,13.184,-18.066,0
1540168158.920,22.461,23.926,33.691,17.090,6.836,0
1540168158.924,14.160,24.414,28.320,21.484,29.785,0
1540168158.928,17.090,22.461,22.949,7.324,6.836,0
1540168158.932,25.391,23.438,19.531,8.789,-14.648,0
1540168158.936,29.297,22.461,17.578,18.066,51.270,0
1540168158.940,25.391,19.531,16.602,23.926,73.242,0
1540168158.944,19.043,20.996,22.461,27.832,41.504,0
1540168158.948,26.855,24.414,31.738,20.508,24.902,0
1540168158.952,41.016,25.879,34.668,14.648,61.035,0
1540168158.955,37.598,24.902,28.809,14.648,95.703,0
1540168158.959,35.156,27.344,22.949,31.738,66.406,0
1540168158.963,44.434,27.832,26.855,26.367,23.438,0
1540168158.967,47.363,26.855,20.508,3.418,3.906,0
1540168158.971,36.621,23.926,15.137,5.859,2.441,0
1540168158.975,30.762,26.855,23.926,12.695,16.113,0
1540168158.979,38.574,30.273,24.902,24.902,-56.152,0
1540168158.983,42.480,24.902,21.484,28.320,-15.625,0
1540168158.987,35.645,22.461,20.508,27.344,6.348,0
1540168158.991,20.020,21.973,27.344,30.762,-4.395,0
1540168158.995,17.578,20.020,29.785,30.762,10.742,0
1540168158.998,33.691,25.391,33.203,32.227,-20.508,0
1540168159.002,33.203,27.344,35.645,28.320,35.156,0
1540168159.006,17.090,23.438,19.043,21.973,58.594,0
1540168159.010,14.160,26.367,14.648,26.855,2.441,0
1540168159.014,20.996,28.320,25.879,30.762,38.086,0
1540168159.018,22.949,26.367,26.855,26.367,107.422,0
1540168159.022,17.090,26.855,19.043,30.762,62.012,0
1540168159.026,19.043,29.297,12.207,28.320,24.902,0
1540168159.030,27.832,30.273,20.508,19.043,65.430,0
1540168159.034,28.809,29.297,20.996,15.625,65.918,0
1540168159.038,22.949,30.273,23.926,12.695,40.039,0
1540168159.041,19.531,30.762,27.832,18.066,9.277,0
1540168159.045,16.113,24.414,21.973,19.531,20.020,0
1540168159.049,15.625,19.043,26.855,11.719,23.926,0
1540168159.053,18.066,21.973,25.879,15.137,41.016,0
1540168159.057,17.090,25.879,25.879,29.785,64.941,0
1540168159.061,17.578,20.508,29.297,33.203,35.156,0
1540168159.065,23.438,18.066,29.297,21.484,19.043,0
1540168159.069,25.879,18.066,32.715,16.602,-9.277,0
1540168159.073,18.555,19.531,38.574,24.414,2.441,0
1540168159.077,17.578,21.484,35.156,25.879,15.625,1
1540168159.080,27.832,19.043,23.926,23.438,-2.930,0
1540168159.084,30.273,20.996,24.902,22.949,12.695,0
1540168159.088,22.949,21.484,30.273,24.902,37.109,0
1540168159.092,27.832,23.438,21.973,31.250,63.965,0
1540168159.096,40.527,28.809,19.531,26.855,31.738,0
1540168159.100,41.016,23.438,19.043,21.484,33.691,0
1540168159.104,30.762,17.090,15.137,24.414,18.066,0
1540168159.108,17.090,18.066,18.555,20.020,11.719,0
1540168159.112,18.555,21.973,24.414,22.461,-22.949,0
1540168159.116,31.738,22.949,28.320,27.344,-52.246,0
1540168159.120,35.156,25.391,21.484,18.555,27.344,0
1540168159.123,23.438,29.785,17.578,25.879,77.637,0
1540168159.127,21.484,26.367,20.020,37.598,43.945,0
1540168159.131,33.691,24.902,20.020,33.691,50.293,0
1540168159.135,37.598,23.926,15.625,21.973,-16.602,0
1540168159.139,32.715,25.391,20.508,20.020,-54.688,0
1540168159.143,37.598,27.832,24.414,20.996,5.859,0
1540168159.147,46.387,29.297,23.926,26.855,26.367,0
1540168159.151,46.387,28.809,24.414,28.320,45.898,0
1540168159.155,35.645,24.414,17.090,17.090,23.926,0
1540168159.159,25.391,23.438,21.973,11.719,36.133,0
1540168159.163,26.367,20.996,33.691,17.578,46.875,0
1540168159.166,34.668,20.020,38.574,21.484,11.230,0
1540168159.170,27.832,24.902,39.551,17.090,-32.715,0
1540168159.174,18.066,24.902,36.621,18.066,-9.766,0
1540168159.178,19.531,22.949,31.250,18.555,37.109,0
1540168159.182,28.809,26.367,26.855,18.066,64.453,0
1540168159.186,28.320,25.391,26.855,14.648,45.898,0
1540168159.190,20.508,23.438,26.855,15.625,55.176,0
1540168159.194,19.531,24.902,24.902,22.949,89.844,0
1540168159.198,30.273,26.367,22.949,22.461,47.363,0
1540168159.202,37.598,26.855,19.531,18.066,24.414,0
1540168159.205,27.344,24.902,20.996,22.461,18.066,0
1540168159.209,25.391,25.391,23.438,23.438,-17.578,0
1540168159.213,33.203,25.879,25.879,20.996,-6.836,0
1540168159.217,43.945,28.809,24.902,20.996,29.785,0
1540168159.221,38.574,31.738,23.926,22.949,15.625,0
1540168159.225,26.367,30.273,23.926,25.391,-0.977,0
1540168159.229,30.273,27.832,16.602,23.438,-24.414,0
1540168159.233,33.691,27.832,18.066,21.484,17.578,0
1540168159.237,28.809,26.855,25.391,24.902,53.711,0
1540168159.241,27.832,29.297,28.320,30.762,7.812,0
1540168159.245,30.273,30.273,21.973,32.715,56.641,0
1540168159.248,37.598,31.738,15.625,38.086,62.012,0
1540168159.252,41.992,30.762,12.695,41.504,6.348,0
1540168159.256,35.645,30.273,16.602,45.898,34.180,0
1540168159.260,33.691,26.855,24.902,58.105,53.711,0
1540168159.264,36.621,20.996,20.508,49.805,44.434,0
1540168159.268,40.527,26.367,21.484,30.762,44.922,0
1540168159.272,42.969,29.785,27.832,30.762,54.688,0
1540168159.276,33.691,28.320,28.320,42.480,81.055,0
1540168159.280,30.273,26.367,16.113,41.016,68.359,0
1540168159.284,39.062,32.227,16.602,37.109,63.965,0
1540168159.288,34.180,30.762,23.926,26.855,83.984,0
1540168159.291,20.996,21.973,20.508,20.508,76.660,0
1540168159.295,13.184,19.531,24.414,30.762,-13.672,0
1540168159.299,19.043,20.508,27.344,32.715,-37.598,0
1540168159.303,20.020,25.391,19.531,20.996,82.031,0
1540168159.307,16.602,26.367,24.902,17.578,49.316,0
1540168159.311,21.973,23.438,25.391,27.832,-40.039,0
1540168159.315,27.344,17.090,20.508,29.785,20.996,0
1540168159.319,23.438,17.578,32.227,25.391,3.418,0
1540168159.323,11.230,20.020,35.645,29.297,-36.133,0
1540168159.327,18.555,18.555,35.156,31.250,4.883,0
1540168159.330,33.203,19.043,32.715,25.879,53.223,0
1540168159.334,27.832,17.090,26.367,21.484,91.309,0
1540168159.338,15.137,14.648,27.832,25.391,22.461,0
1540168159.342,14.648,19.531,28.320,20.508,57.617,0
1540168159.346,28.320,23.438,30.762,18.066,47.852,0
1540168159.350,29.785,19.043,33.203,24.902,-50.781,0
1540168159.354,18.066,15.625,29.297,12.695,1.953,0
1540168159.358,10.254,17.578,28.320,14.160,33.691,0
1540168159.362,21.484,22.461,27.344,21.484,29.785,0
1540168159.366,37.109,22.461,27.344,17.090,16.113,0
1540168159.370,34.668,21.973,27.344,21.973,17.090,0
1540168159.373,26.855,25.391,25.391,32.227,5.859,0
1540168159.377,25.391,28.809,23.438,25.391,-12.207,0
1540168159.381,32.227,29.297,24.902,19.043,4.395,0
1540168159.385,32.715,27.344,27.344,17.578,31.738,0
1540168159.389,17.090,28.809,25.879,18.555,59.570,0
1540168159.393,7.812,27.344,26.367,24.902,20.020,0
1540168159.397,20.996,24.414,22.949,26.367,3.418,0
1540168159.401,31.738,30.273,23.438,27.344,21.973,0
1540168159.405,25.391,32.227,25.391,24.902,-20.996,0
1540168159.409,26.367,28.809,25.391,36.621,-33.203,0
1540168159.413,31.738,27.832,25.879,41.016,11.719,0
1540168159.416,26.367,28.809,29.785,18.066,74.219,0
1540168159.420,20.020,25.879,39.551,13.184,65.430,0
1540168159.424,20.508,22.461,34.180,21.484,19.043,0
1540168159.428,23.926,26.855,33.203,21.484,-2.930,0
1540168159.432,31.250,29.785,33.203,30.273,-11.230,0
1540168159.436,20.508,25.391,29.785,27.832,4.395,0
1540168159.440,9.277,30.273,33.691,21.973,39.062,0
1540168159.444,15.137,38.086,25.879,22.949,70.312,0
1540168159.448,26.855,36.133,7.324,28.809,37.109,0
1540168159.452,44.434,33.203,19.531,41.992,62.500,0
1540168159.455,41.016,25.879,38.574,34.180,80.078,0
1540168159.459,17.578,16.602,40.039,21.973,36.133,0
1540168159.463,16.113,25.879,46.387,20.996,0.977,0
1540168159.467,26.367,33.691,43.945,23.438,25.391,0
1540168159.471,15.137,27.344,34.180,23.438,31.250,0
1540168159.475,3.906,24.414,23.926,19.043,9.277,0
1540168159.479,9.277,26.367,22.461,13.184,45.410,0
1540168159.483,19.043,28.809,24.902,6.348,97.656,0
1540168159.487,21.484,22.949,17.090,5.371,46.875,0
1540168159.491,19.531,22.461,17.578,11.719,-22.461,0
1540168159.495,23.438,26.367,27.344,17.090,-24.414,0
1540168159.498,33.691,26.855,33.691,22.949,26.855,0
1540168159.502,34.180,25.879,29.785,24.414,22.949,0
1540168159.506,28.320,26.855,29.785,28.809,15.625,0
1540168159.510,31.738,26.367,27.344,27.344,-20.508,0
1540168159.514,34.180,25.879,22.461,19.043,-48.340,0
1540168159.518,38.086,26.855,30.762,24.414,19.043,0
1540168159.522,34.180,28.320,24.902,21.484,22.461,0
1540168159.526,31.250,26.855,17.090,23.438,49.316,0
1540168159.530,30.273,19.531,26.367,26.367,101.074,0
1540168159.534,31.738,24.414,33.203,19.531,57.129,0
1540168159.538,25.879,32.715,29.297,21.973,47.363,0
1540168159.541,10.254,26.855,23.926,13.184,61.523,0
1540168159.545,13.672,23.438,22.949,8.301,37.598,0
1540168159.549,27.832,28.809,19.531,12.695,32.715,0
1540168159.553,20.996,21.484,21.973,9.766,18.066,0
1540168159.557,13.672,18.555,28.809,14.648,50.781,0
1540168159.561,20.508,30.273,34.180,20.020,69.824,0
1540168159.565,24.902,26.367,31.738,9.277,40.527,0
1540168159.569,22.949,24.902,26.367,9.766,59.570,0
1540168159.573,14.648,31.738,25.879,20.020,97.168,0
1540168159.577,9.766,30.273,30.273,25.879,36.621,0
1540168159.580,17.090,26.367,34.668,35.156,-9.277,0
1540168159.584,22.949,24.902,30.273,20.996,19.531,0
1540168159.588,19.531,28.809,30.273,5.859,48.828,0
1540168159.592,17.090,31.250,31.738,7.812,46.387,0
1540168159.596,20.020,29.785,29.785,12.695,19.043,0
1540168159.600,25.391,27.832,27.832,15.137,1.953,0
1540168159.604,25.879,24.902,25.391,14.648,92.285,0
1540168159.608,27.344,27.832,20.508,18.555,77.637,0
1540168159.612,37.598,34.180,27.344,28.809,-41.504,0
1540168159.616,42.480,28.809,40.039,30.762,-6.348,0
1540168159.620,31.738,19.531,32.715,21.484,27.344,0
1540168159.623,15.625,20.508,24.414,22.949,6.836,0
1540168159.627,11.719,20.996,29.297,28.809,24.414,0
1540168159.631,20.020,14.648,28.809,19.043,35.156,0
1540168159.635,29.297,15.137,20.020,23.926,18.066,0
1540168159.639,27.344,20.508,27.832,39.062,0.977,0
1540168159.643,17.090,17.578,37.598,24.414,25.879,0
1540168159.647,17.578,11.719,25.391,15.625,43.457,0
1540168159.651,34.180,13.184,28.320,17.578,24.902,1
1540168159.655,32.227,13.184,29.297,14.160,3.906,0
1540168159.659,20.508,11.719,16.113,16.602,12.207,0
1540168159.663,24.414,15.625,22.461,18.066,3.418,0
1540168159.666,34.668,13.672,33.203,16.113,24.902,0
1540168159.670,31.250,10.254,29.785,20.508,42.480,0
1540168159.674,27.832,14.160,18.066,26.367,40.527,0
1540168159.678,26.855,9.766,19.043,16.602,10.254,0
1540168159.682,26.367,6.348,32.715,13.184,70.312,0
1540168159.686,35.156,10.254,39.062,22.949,64.941,0
1540168159.690,38.574,12.695,34.180,24.902,17.578,0
1540168159.694,32.227,10.254,27.344,27.832,37.598,0
1540168159.698,30.762,9.766,27.832,37.598,28.809,0
1540168159.702,41.504,19.043,34.668,33.691,21.973,0
1540168159.705,36.621,20.996,30.273,25.391,30.273,0
1540168159.709,28.320,17.090,21.484,24.414,32.715,0
1540168159.713,28.320,19.043,20.996,20.996,48.828,0
1540168159.717,29.785,23.926,29.297,21.484,63.965,0
1540168159.721,28.809,23.438,36.621,29.297,81.543,0
1540168159.725,24.902,21.484,28.320,32.227,72.754,0
1540168159.729,29.297,25.391,23.438,33.203,44.434,0
1540168159.733,34.180,28.320,31.250,35.156,16.113,0
1540168159.737,30.762,30.273,27.344,33.691,65.918,0
1540168159.741,19.043,29.297,23.926,37.598,84.961,0
1540168159.745,20.020,23.926,23.438,33.691,42.480,0
1540168159.748,30.273,26.367,19.043,27.344,20.020,0
1540168159.752,29.297,29.297,25.879,30.762,0.000,0
1540168159.756,28.320,28.320,29.297,18.066,-2.441,0
1540168159.760,27.832,26.855,19.043,10.254,34.668,0
1540168159.764,22.461,26.855,21.484,18.555,-44.922,0
1540168159.768,15.625,28.809,30.762,18.066,-26.855,0
1540168159.772,7.812,23.438,23.438,14.648,-1.953,0
1540168159.776,8.789,24.902,23.438,10.742,-64.453,0
1540168159.780,18.555,29.785,31.738,13.184,49.805,0
1540168159.784,23.926,23.438,27.344,17.090,97.168,0
1540168159.788,18.555,22.461,24.902,18.066,22.461,0
1540168159.791,12.695,28.809,23.926,14.160,1.465,0
1540168159.795,22.949,28.809,22.461,20.996,-16.602,0
1540168159.799,32.227,28.809,22.949,31.250,10.254,0
1540168159.803,22.461,30.762,25.879,18.555,36.621,0
1540168159.807,7.812,28.809,24.902,11.719,-4.883,0
1540168159.811,1.953,30.273,12.695,18.066,4.395,0
1540168159.815,12.695,31.738,8.789,22.461,31.250,0
1540168159.819,14.160,20.508,24.414,21.484,47.363,0
1540168159.823,4.883,21.484,35.156,17.090,40.039,0
1540168159.827,8.301,26.855,30.762,12.207,15.625,0
1540168159.830,21.973,18.555,32.715,19.043,38.574,0
1540168159.834,33.203,17.090,35.156,16.602,64.453,0
1540168159.838,28.809,16.113,25.879,3.906,41.504,0
1540168159.842,31.250,14.648,27.344,7.812,42.480,0
1540168159.846,43.457,16.602,27.344,11.230,62.500,0
1540168159.850,49.316,15.137,19.531,7.812,80.078,0
1540168159.854,47.363,11.719,21.973,9.277,22.461,0
1540168159.858,39.551,10.254,22.949,18.066,10.254,0
1540168159.862,36.133,7.812,27.832,33.691,61.523,0
1540168159.866,35.156,6.348,30.273,36.133,42.969,0
1540168159.870,29.785,9.766,30.273,29.785,41.992,0
1540168159.873,23.438,10.742,35.645,29.785,57.129,0
1540168159.877,24.414,8.789,30.273,23.438,-6.348,0
1540168159.881,35.645,10.254,23.926,20.020,-56.641,0
1540168159.885,40.527,14.160,28.320,16.602,-26.855,0
1540168159.889,27.344,17.578,27.832,19.043,33.203,0
1540168159.893,26.367,20.020,25.391,26.367,31.738,0
1540168159.897,40.039,20.020,25.879,40.039,38.574,0
1540168159.901,38.574,19.531,25.391,36.621,18.066,0
1540168159.905,26.855,21.973,25.391,26.367,24.902,0
1540168159.909,20.996,19.531,22.461,24.902,52.734,0
1540168159.913,27.344,17.090,17.578,20.508,30.762,0
1540168159.916,40.527,19.531,21.484,20.508,82.520,0
1540168159.920,37.598,18.555,29.297,25.879,76.172,0
1540168159.924,26.855,11.230,31.250,26.367,41.016,0
1540168159.928,35.645,12.207,34.180,34.180,61.523,0
1540168159.932,33.691,15.137,32.227,42.969,11.230,0
1540168159.936,23.926,20.508,28.320,41.504,14.648,0
1540168159.940,24.414,24.414,27.344,39.551,55.176,0
1540168159.944,23.438,13.184,24.902,26.855,55.664,0
1540168159.948,28.320,10.254,17.090,16.113,23.926,0
1540168159.952,28.809,13.184,20.996,16.602,22.461,0
1540168159.955,18.066,9.766,26.855,20.508,85.449,0
1540168159.959,19.043,7.324,23.438,26.855,49.805,0
1540168159.963,29.785,5.859,30.273,31.250,-27.344,0
1540168159.967,30.273,7.812,30.273,35.645,1.953,0
1540168159.971,21.973,12.695,24.414,38.086,20.020,0
1540168159.975,23.438,14.648,22.949,36.133,67.383,0
1540168159.979,40.039,15.625,22.461,38.086,97.168,0
1540168159.983,48.828,13.184,25.391,44.922,13.184,0
1540168159.987,40.527,11.230,29.297,44.434,31.250,0
1540168159.991,32.227,11.230,25.879,28.320,23.438,0
1540168159.995,30.273,10.254,28.320,19.043,-7.812,0
1540168159.998,36.621,11.719,33.691,21.973,35.645,0
1540168160.002,37.598,11.230,27.344,26.855,56.641,0
1540168160.006,26.367,13.672,26.367,26.367,-4.395,0
1540168160.010,30.273,13.672,28.320,25.391,-2.930,0
1540168160.014,35.645,8.301,25.879,25.879,48.340,0
1540168160.018,31.250,9.277,20.996,17.090,39.062,0
1540168160.022,28.320,13.184,20.508,20.508,7.812,0
1540168160.026,24.414,12.695,26.367,28.320,-29.785,0
1540168160.030,24.414,14.648,24.414,15.137,2.930,0
1540168160.034,33.203,17.090,23.926,8.789,56.641,0
1540168160.038,27.832,16.113,21.973,13.184,55.176,0
1540168160.041,18.555,20.020,18.555,7.812,32.715,0
1540168160.045,29.297,22.461,22.461,17.090,-9.277,0
1540168160.049,43.457,18.066,23.926,24.902,6.348,0
1540168160.053,40.039,15.137,21.973,19.043,6.348,0
1540168160.057,32.715,15.625,18.555,21.484,5.371,0
1540168160.061,36.133,19.043,16.602,28.320,12.695,0
1540168160.065,41.992,21.484,20.996,27.832,27.344,0
1540168160.069,43.457,18.555,24.414,22.949,41.992,0
1540168160.073,36.621,16.602,24.414,21.484,14.160,0
1540168160.077,27.832,19.043,17.090,21.484,26.367,0
1540168160.080,34.180,20.996,14.160,27.832,-0.977,0
1540168160.084,41.504,20.996,23.926,28.320,-29.785,0
1540168160.088,35.156,21.973,23.926,27.832,16.602,0
1540168160.092,23.438,18.066,25.879,25.879,-3.906,0
1540168160.096,30.762,17.578,30.273,19.531,8.301,0
1540168160.100,39.062,21.973,32.227,20.508,73.730,0
1540168160.104,27.344,21.484,32.715,22.461,83.984,0
1540168160.108,24.902,18.066,23.926,25.391,39.551,0
1540168160.112,38.574,13.672,20.996,32.715,3.418,0
1540168160.116,39.062,12.207,25.391,24.902,1.953,0
1540168160.120,22.949,17.090,31.738,16.602,45.898,0
1540168160.123,10.742,22.461,27.344,25.391,80.566,0
1540168160.127,15.625,23.926,29.297,32.227,69.824,0
1540168160.131,30.273,21.973,25.391,39.062,60.547,0
1540168160.135,25.391,17.578,8.301,33.691,47.852,0
1540168160.139,14.648,18.066,9.766,33.203,-21.973,0
1540168160.143,23.926,18.555,29.297,40.527,-34.668,0
1540168160.147,31.250,16.602,35.645,25.879,22.949,0
1540168160.151,27.832,20.996,22.949,15.625,17.090,0
1540168160.155,20.020,11.719,14.160,17.090,24.414,0
1540168160.159,15.625,9.277,23.926,18.066,49.805,0
1540168160.163,21.973,20.508,28.320,26.367,10.742,0
1540168160.166,29.785,20.508,21.973,35.645,8.789,0
1540168160.170,28.809,21.973,31.250,24.902,31.250,0
1540168160.174,27.344,27.344,29.297,26.855,-38.086,0
1540168160.178,23.438,23.438,18.066,39.062,1.953,0
1540168160.182,21.484,19.043,20.996,20.996,73.730,0
1540168160.186,22.949,26.855,32.227,5.371,34.668,0
1540168160.190,14.160,31.738,38.574,10.254,20.020,0
1540168160.194,12.207,25.391,30.273,12.695,49.805,0
1540168160.198,21.973,23.438,24.414,21.484,-0.977,0
1540168160.202,24.414,18.555,23.926,25.391,-39.062,0
1540168160.205,18.066,12.695,17.090,22.949,-32.715,0
1540168160.209,17.578,10.742,13.184,20.996,-9.766,0
1540168160.213,20.020,8.301,20.996,17.578,28.809,0
1540168160.217,30.762,15.137,24.902,16.602,11.230,0
1540168160.221,25.391,11.719,27.832,20.020,0.000,0
1540168160.225,16.602,6.836,30.762,18.066,49.316,0
1540168160.229,20.020,11.719,27.344,17.578,59.082,0
1540168160.233,22.949,10.742,29.785,33.203,18.555,0
1540168160.237,19.043,7.324,27.832,26.855,0.977,0
1540168160.241,7.324,6.348,22.949,17.578,48.828,0
1540168160.245,13.672,11.230,26.367,29.785,94.727,0
1540168160.248,26.855,13.672,28.320,30.273,66.895,0
1540168160.252,26.855,12.207,24.414,11.719,35.156,0
1540168160.256,23.438,12.695,22.949,17.090,18.555,0
1540168160.260,24.902,11.230,22.461,30.762,11.719,0
1540168160.264,33.691,12.695,21.973,23.438,3.418,0
1540168160.268,40.039,16.113,25.391,26.367,55.176,0
1540168160.272,28.809,13.672,22.949,17.578,70.801,0
1540168160.276,20.996,9.766,20.996,8.789,40.527,0
1540168160.280,28.809,12.695,30.762,16.602,76.660,0
1540168160.284,33.203,14.648,35.156,19.043,30.273,0
1540168160.288,36.621,16.602,32.715,35.156,4.395,1
1540168160.291,34.180,23.926,32.715,44.434,-8.789,0
1540168160.295,32.227,19.531,23.926,36.133,-5.859,0
1540168160.299,44.922,20.996,11.719,37.109,21.484,0
1540168160.303,42.480,26.855,20.508,35.645,15.137,0
1540168160.307,25.391,18.555,38.086,29.785,54.688,0
1540168160.311,25.879,16.602,38.574,31.738,-17.090,0
1540168160.315,38.574,24.414,30.762,39.551,-71.777,0
1540168160.319,39.062,20.020,32.715,31.250,36.133,0
1540168160.323,27.344,12.207,33.203,24.414,68.359,0
1540168160.327,31.250,20.996,35.156,32.227,-29.785,0
1540168160.330,41.992,19.531,35.645,41.016,-23.926,0
1540168160.334,46.387,10.254,19.531,31.250,-15.625,0
1540168160.338,41.016,16.113,14.648,21.484,-3.906,0
1540168160.342,32.715,20.020,25.879,26.855,56.641,0
1540168160.346,35.156,15.625,33.691,31.738,55.664,0
1540168160.350,35.156,16.113,29.785,33.203,52.246,0
1540168160.354,30.273,17.578,24.902,24.902,20.508,0
1540168160.358,25.391,18.555,24.902,19.531,43.457,0
1540168160.362,32.715,18.555,22.461,26.367,15.625,0
1540168160.366,38.086,19.043,15.137,26.855,52.734,0
1540168160.370,30.273,24.414,19.043,11.719,82.031,0
1540168160.373,25.879,24.902,32.227,15.625,52.246,0
1540168160.377,20.508,20.508,33.691,28.320,74.707,0
1540168160.381,21.484,23.926,23.926,24.902,72.266,0
1540168160.385,36.621,27.832,18.066,25.879,60.059,0
1540168160.389,31.738,24.414,24.902,33.203,35.645,0
1540168160.393,14.160,20.996,23.926,28.809,58.594,0
1540168160.397,19.531,16.602,26.855,30.762,55.664,0
1540168160.401,27.344,19.531,26.855,37.109,-21.973,0
1540168160.405,19.043,25.879,18.555,29.297,-3.418,0
1540168160.409,14.160,22.949,21.973,29.785,-31.738,0
1540168160.413,20.996,20.996,21.484,35.156,0.000,0
1540168160.416,36.621,24.414,27.832,26.855,70.801,0
1540168160.420,41.016,24.902,26.367,20.020,31.250,0
1540168160.424,28.320,20.020,20.508,26.855,29.297,0
1540168160.428,19.531,18.555,31.250,29.297,50.781,0
1540168160.432,30.273,22.461,33.203,23.926,47.852,0
1540168160.436,32.715,21.484,26.855,25.391,23.926,0
1540168160.440,20.020,22.461,26.855,27.344,41.992,0
1540168160.444,18.066,20.508,29.785,33.691,101.074,0
1540168160.448,27.344,20.020,22.949,36.133,16.113,0
1540168160.452,34.180,26.855,19.043,27.344,-58.594,0
1540168160.455,32.715,26.367,8.301,32.227,-17.578,0
1540168160.459,26.855,21.484,10.254,29.297,-2.930,0
1540168160.463,31.250,25.879,36.621,15.625,36.133,0
1540168160.467,44.434,28.809,39.062,20.996,47.363,0
1540168160.471,33.691,21.973,27.832,22.461,3.906,0
1540168160.475,22.461,20.508,21.484,19.043,33.203,0
1540168160.479,28.809,23.926,22.461,26.367,30.273,0
1540168160.483,43.945,27.832,26.367,35.645,18.555,0
1540168160.487,45.410,25.879,29.297,37.598,24.902,0
1540168160.491,32.227,19.043,31.250,36.133,7.324,0
1540168160.495,33.691,22.949,29.785,48.828,-49.316,0
1540168160.498,42.969,27.832,27.832,50.781,-46.875,0
1540168160.502,41.016,23.438,30.762,28.809,16.113,0
1540168160.506,30.762,19.531,27.832,15.625,28.320,0
1540168160.510,31.738,17.578,22.461,18.066,52.734,0
1540168160.514,35.645,16.602,20.508,21.484,37.109,0
1540168160.518,35.645,23.926,24.902,21.973,22.949,0
1540168160.522,27.344,23.926,21.484,25.391,56.641,0
1540168160.526,22.461,20.508,17.090,31.738,56.152,0
1540168160.530,32.715,26.855,18.555,30.273,23.438,0
1540168160.534,34.180,27.832,6.348,24.902,20.996,0
1540168160.538,21.973,24.414,12.207,17.578,-4.395,0
1540168160.541,19.531,24.414,23.438,19.531,-16.113,0
1540168160.545,30.762,24.414,20.996,23.926,18.066,0
1540168160.549,38.574,21.484,21.973,29.785,37.598,0
1540168160.553,34.668,22.949,17.090,27.832,31.250,0
1540168160.557,31.738,26.855,15.625,20.020,19.043,0
1540168160.561,26.367,21.973,25.391,24.414,19.531,0
1540168160.565,29.785,20.996,20.020,27.832,2.930,0
1540168160.569,35.156,22.949,11.719,21.973,4.883,0
1540168160.573,23.438,20.996,14.160,9.766,-1.953,0
1540168160.577,17.090,20.996,20.020,7.324,25.879,0
1540168160.580,27.832,21.484,23.926,15.625,38.086,0
1540168160.584,38.574,18.555,17.578,24.902,1.953,0
1540168160.588,35.156,21.973,15.625,27.832,-22.461,0
1540168160.592,37.109,24.414,28.320,31.738,-12.695,0
1540168160.596,42.480,21.973,25.879,28.320,25.391,0
1540168160.600,37.598,23.926,22.461,16.113,15.137,0
1540168160.604,27.832,25.879,26.367,12.695,0.977,0
1540168160.608,24.902,27.832,28.320,27.344,9.277,0
1540168160.612,23.438,28.320,28.809,34.668,31.738,0
1540168160.616,27.344,25.879,25.879,22.949,49.316,0
1540168160.620,28.320,26.855,27.832,20.508,28.320,0
1540168160.623,25.879,27.344,27.344,28.320,47.852,0
1540168160.627,31.250,30.273,28.320,31.738,27.344,0
1540168160.631,26.367,26.367,25.879,27.832,-23.438,0
1540168160.635,21.484,22.461,27.344,26.855,18.555,0
1540168160.639,20.996,24.902,29.297,19.531,42.969,0
1540168160.643,22.949,26.367,31.738,19.531,2.930,0
1540168160.647,28.320,27.832,31.250,29.297,46.387,0
1540168160.651,34.180,27.344,19.043,24.902,29.297,0
1540168160.655,27.832,28.320,17.578,13.672,7.324,0
1540168160.659,21.973,34.180,28.809,14.648,72.754,0
1540168160.663,24.414,36.133,29.785,20.996,23.438,0
1540168160.666,33.691,34.180,25.391,21.973,5.859,0
1540168160.670,37.598,34.180,18.555,23.926,28.320,0
1540168160.674,26.855,29.785,27.344,21.484,-10.254,0
1540168160.678,18.555,23.926,40.039,15.625,-31.250,0
1540168160.682,20.996,22.461,34.180,17.578,-15.137,0
1540168160.686,29.297,26.367,29.785,26.367,4.883,0
1540168160.690,25.879,26.855,24.902,27.832,-4.883,0
1540168160.694,27.832,27.344,17.578,29.785,-13.672,0
1540168160.698,41.016,25.391,22.949,32.715,38.086,0
1540168160.702,45.898,23.926,28.320,17.578,70.801,0
1540168160.705,43.457,29.297,26.855,10.742,39.551,0
1540168160.709,36.621,29.297,19.043,6.836,27.344,0
1540168160.713,42.480,24.902,17.090,10.254,10.742,0
1540168160.717,50.293,22.461,21.973,13.184,-1.465,0
1540168160.721,49.316,31.250,30.762,10.742,39.551,0
1540168160.725,45.898,31.250,32.715,26.367,30.762,0
1540168160.729,44.434,24.902,23.438,20.996,8.789,0
1540168160.733,49.316,30.273,25.391,15.137,83.496,0
1540168160.737,32.227,34.180,25.391,20.996,43.945,0
1540168160.741,11.719,26.855,13.672,16.113,16.113,0
1540168160.745,16.113,25.391,7.812,21.484,95.703,0
1540168160.748,21.973,26.855,24.414,24.902,55.176,0
1540168160.752,17.090,22.949,39.062,8.789,82.031,0
1540168160.756,9.766,20.508,37.598,8.301,114.258,0
1540168160.760,10.742,17.578,29.297,16.113,92.773,0
1540168160.764,23.926,20.020,25.879,20.020,96.191,0
1540168160.768,30.762,19.531,33.203,32.715,80.078,0
1540168160.772,17.090,16.602,35.156,22.949,48.340,0
1540168160.776,10.254,17.578,36.133,22.949,35.645,0
1540168160.780,20.020,19.531,36.621,36.133,65.918,0
1540168160.784,23.926,22.461,35.645,32.227,69.336,0
1540168160.788,17.090,22.949,33.203,28.809,2.930,0
1540168160.791,10.742,22.461,18.555,30.762,64.453,0
1540168160.795,18.555,20.996,22.461,22.461,35.156,0
1540168160.799,32.715,20.020,35.645,17.578,-75.684,0
1540168160.803,28.320,23.926,32.715,24.414,4.883,0
1540168160.807,19.043,29.297,32.227,25.879,8.301,0
1540168160.811,25.391,31.738,27.344,22.461,6.836,0
1540168160.815,41.016,26.855,20.996,17.578,20.508,0
1540168160.819,41.016,24.902,20.996,15.625,-10.742,0
1540168160.823,26.855,29.297,16.602,18.066,-16.113,0
1540168160.827,20.996,34.180,17.090,29.785,-66.895,0
1540168160.830,29.785,36.133,26.367,36.621,-0.488,0
1540168160.834,41.992,35.645,38.086,33.203,98.633,0
1540168160.838,43.457,31.738,31.250,37.598,64.453,0
1540168160.842,35.645,23.438,19.531,36.133,40.039,0
1540168160.846,35.645,20.508,28.809,31.250,72.754,0
1540168160.850,32.715,26.855,32.227,24.902,61.523,0
1540168160.854,33.203,34.180,30.762,21.484,28.320,0
1540168160.858,31.738,35.156,33.203,27.344,-3.418,0
1540168160.862,25.391,29.297,32.227,30.273,29.297,0
1540168160.866,31.250,24.414,31.250,34.180,98.633,0
1540168160.870,31.738,26.855,30.762,33.203,75.195,0
1540168160.873,32.227,31.738,31.738,35.156,74.219,0
1540168160.877,38.086,30.762,31.250,40.039,84.473,0
1540168160.881,44.922,29.785,34.180,37.109,30.273,0
1540168160.885,51.758,38.086,28.809,37.109,-4.395,0
1540168160.889,41.016,36.133,24.414,35.156,19.043,0
1540168160.893,42.480,29.785,22.461,38.086,44.922,0
1540168160.897,57.617,24.902,12.695,41.504,31.250,0
1540168160.901,53.223,21.973,22.461,36.133,45.898,0
1540168160.905,37.598,34.668,25.879,35.156,50.781,0
1540168160.909,32.227,41.992,27.832,31.738,-0.977,0
1540168160.913,39.551,35.645,36.621,26.367,-33.203,0
1540168160.916,42.969,31.738,32.715,18.555,-26.855,0
1540168160.920,36.621,33.203,21.484,17.090,-13.672,0
1540168160.924,32.227,36.133,15.625,21.973,24.902,0
1540168160.928,34.668,33.691,22.461,26.367,27.344,0
1540168160.932,43.457,30.273,29.785,30.762,-7.812,0
1540168160.936,40.039,31.250,35.645,38.086,21.973,0
1540168160.940,32.715,30.273,31.738,45.898,27.832,0
1540168160.944,38.086,29.297,20.996,36.133,-17.578,0
1540168160.948,45.410,28.809,21.484,22.461,-30.273,0
1540168160.952,50.293,29.297,28.320,25.391,44.922,0
1540168160.955,43.457,29.297,21.973,20.020,13.184,1
1540168160.959,34.668,30.762,18.066,17.578,-12.695,0
1540168160.963,31.738,31.250,29.297,26.367,19.043,0
1540168160.967,36.621,31.738,36.621,27.344,36.133,0
1540168160.971,40.039,29.785,29.297,25.879,31.250,0
1540168160.975,36.133,25.391,25.391,16.113,24.902,0
1540168160.979,36.621,22.949,24.414,11.230,38.086,0
1540168160.983,45.410,22.949,25.879,17.578,8.301,0
1540168160.987,38.574,24.902,24.902,18.066,20.508,0
1540168160.991,21.973,24.414,17.578,12.695,11.719,0
1540168160.995,20.508,20.996,19.043,14.648,24.414,0
1540168160.998,26.855,20.020,2.441,25.391,52.246,0
1540168161.002,21.484,18.555,-0.977,20.508,45.410,0
1540168161.006,10.742,20.020,33.691,16.602,70.312,0
1540168161.010,11.230,16.602,47.363,21.484,35.645,0
1540168161.014,19.531,16.602,40.527,15.137,7.812,0
1540168161.018,19.531,19.531,34.668,15.137,23.926,0
1540168161.022,10.742,18.555,24.414,13.672,0.000,0
1540168161.026,10.742,24.902,18.555,11.719,53.223,0
1540168161.030,16.602,29.297,24.902,21.484,85.938,0
1540168161.034,24.902,23.926,29.297,21.973,92.773,0
1540168161.038,20.508,20.020,24.414,19.531,90.332,0
1540168161.041,15.625,22.461,27.832,26.367,87.891,0
1540168161.045,25.391,28.320,28.320,31.738,86.914,0
1540168161.049,34.180,28.320,29.297,40.039,56.152,0
1540168161.053,35.156,26.367,20.996,40.527,20.020,0
1540168161.057,28.809,22.461,19.043,37.598,4.883,0
1540168161.061,40.039,25.391,28.320,34.180,32.715,0
1540168161.065,42.969,31.250,18.555,23.926,27.344,0
1540168161.069,27.344,24.902,20.020,28.320,3.418,0
1540168161.073,18.555,22.461,33.691,30.273,13.184,0
1540168161.077,14.160,21.973,35.645,21.973,-8.301,0
1540168161.080,24.414,20.020,32.227,27.832,-6.836,0
1540168161.084,33.203,19.043,34.668,22.949,-19.043,0
1540168161.088,27.832,20.020,21.484,20.996,-55.176,0
1540168161.092,27.832,24.414,12.695,27.832,-0.488,0
1540168161.096,26.367,19.043,24.414,23.438,55.664,0
1540168161.100,30.762,18.066,33.203,23.926,77.148,0
1540168161.104,35.645,22.461,34.180,26.855,53.223,0
1540168161.108,19.531,19.043,28.320,23.926,9.277,0
1540168161.112,14.160,17.090,26.367,27.344,29.785,0
1540168161.116,21.484,20.020,27.344,20.996,62.988,0
1540168161.120,25.879,26.855,25.391,13.184,65.918,0
1540168161.123,22.461,25.391,18.555,19.043,42.480,0
1540168161.127,19.531,23.438,20.996,27.344,-5.859,0
1540168161.131,19.531,23.926,30.273,29.297,-41.016,0
1540168161.135,16.602,29.297,33.203,23.926,21.484,0
1540168161.139,14.648,37.598,31.250,18.555,65.918,0
1540168161.143,17.090,30.762,30.762,19.531,56.641,0
1540168161.147,15.625,30.273,31.250,18.066,37.598,0
1540168161.151,12.207,32.227,29.297,7.812,-19.043,0
1540168161.155,2.930,33.691,29.297,-1.953,21.973,0
1540168161.159,-20.020,38.574,19.531,-18.066,92.285,0
1540168161.163,-24.414,38.574,18.066,-23.926,25.879,0
1540168161.166,-15.625,44.922,23.926,-20.508,6.348,0
1540168161.170,-22.949,49.805,16.113,-26.367,47.852,0
1540168161.174,-40.039,47.852,13.672,-31.250,27.832,0
1540168161.178,-49.805,45.410,14.160,-44.434,39.062,0
1540168161.182,-52.246,49.805,10.742,-53.711,33.203,0
1540168161.186,-52.246,49.805,15.137,-50.293,11.719,0
1540168161.190,-52.246,54.199,23.438,-44.922,98.633,0
1540168161.194,-46.875,61.523,20.020,-41.016,117.188,0
1540168161.198,-39.551,59.082,9.277,-48.340,61.523,0
1540168161.202,-34.180,57.129,5.371,-51.270,40.039,0
1540168161.205,-41.992,56.641,5.371,-45.898,8.789,0
1540168161.209,-57.129,50.293,5.371,-46.875,46.387,0
1540168161.213,-50.293,46.875,15.137,-50.293,48.828,0
1540168161.217,-40.039,48.828,20.996,-49.805,-15.625,0
1540168161.221,-42.480,47.852,18.066,-44.922,14.648,0
1540168161.225,-39.062,50.293,23.926,-42.480,51.270,0
1540168161.229,-28.809,45.898,19.043,-39.062,10.742,0
1540168161.233,-21.484,38.086,11.719,-35.156,8.301,0
1540168161.237,-24.902,36.133,18.066,-27.832,78.125,0
1540168161.241,-26.855,36.133,9.277,-13.672,70.312,0
1540168161.245,-15.625,34.668,0.000,-6.348,11.719,0
1540168161.248,-0.977,32.715,18.066,5.859,-20.020,0
1540168161.252,6.836,30.273,34.668,4.395,14.160,0
