timestamps,TP9,AF7,AF8,TP10,Right AUX,Marker
1540168289.811,72.266,-23.926,25.391,61.523,43.945,0
1540168289.815,71.777,-25.391,20.996,74.707,2.441,0
1540168289.819,87.891,-19.531,40.527,73.242,-1.465,0
1540168289.823,96.680,-21.484,35.645,87.402,54.199,0
1540168289.827,86.914,-27.344,20.020,84.961,27.344,0
1540168289.830,72.266,-24.902,4.395,58.594,-8.301,0
1540168289.834,74.219,-16.113,10.254,68.848,-36.621,0
1540168289.838,82.031,-21.484,49.805,72.754,2.441,0
1540168289.842,75.684,-34.180,55.176,59.570,21.484,0
1540168289.846,65.430,-10.254,49.316,69.824,-23.438,0
1540168289.850,70.312,-2.441,28.809,69.824,3.906,0
1540168289.854,77.637,-21.973,30.762,61.523,75.195,0
1540168289.858,62.012,-29.297,59.082,52.246,96.191,0
1540168289.862,61.523,-18.555,49.316,38.574,55.664,0
1540168289.866,64.453,-23.438,35.645,33.691,54.199,0
1540168289.870,43.945,-46.387,24.414,28.320,80.566,0
1540168289.873,63.965,-43.945,14.160,39.062,67.383,0
1540168289.877,67.871,-25.879,13.672,58.594,4.883,0
1540168289.881,51.758,-21.973,14.648,63.965,-13.672,0
1540168289.885,62.988,-5.371,20.020,59.082,6.348,0
1540168289.889,58.105,6.348,32.715,44.922,-6.348,0
1540168289.893,48.828,-4.883,24.414,47.363,12.695,0
1540168289.897,51.758,-23.926,-6.348,61.035,75.195,0
1540168289.901,49.316,-33.691,20.508,51.270,37.598,0
1540168289.905,58.594,-13.184,62.988,46.875,13.184,0
1540168289.909,57.617,-8.789,44.434,49.316,40.527,0
1540168289.913,37.109,-25.391,27.832,34.180,6.836,0
1540168289.916,27.344,-16.113,31.738,45.898,-12.695,0
1540168289.920,40.527,-1.465,31.250,48.828,33.203,0
1540168289.924,59.570,-8.789,16.113,56.152,39.551,0
1540168289.928,85.938,-11.230,3.906,73.730,48.340,0
1540168289.932,80.566,-8.301,30.273,60.059,41.504,0
1540168289.936,51.270,-20.020,45.898,42.480,34.668,0
1540168289.940,74.707,-18.555,37.109,50.293,86.914,0
1540168289.944,68.848,-14.648,30.273,49.805,52.246,0
1540168289.948,65.430,-11.719,29.297,32.227,-5.859,0
1540168289.952,64.453,-9.277,25.879,35.156,16.113,0
1540168289.955,63.965,-21.973,20.020,39.062,63.965,0
1540168289.959,63.965,-24.902,28.320,51.758,88.379,0
1540168289.963,42.969,-20.020,20.020,47.363,65.430,0
1540168289.967,67.383,-14.648,8.789,38.574,47.363,0
1540168289.971,66.406,-15.137,15.625,31.250,37.598,0
1540168289.975,60.059,-12.695,15.625,36.133,25.391,0
1540168289.979,92.773,0.000,-4.883,58.105,14.648,0
1540168289.983,78.125,-10.742,-1.465,52.246,22.949,0
1540168289.987,55.176,-16.113,29.785,39.062,-41.504,0
1540168289.991,59.570,-12.695,34.180,32.227,-62.012,0
1540168289.995,47.852,-13.184,27.344,24.902,28.809,0
1540168289.998,45.410,-10.254,19.531,20.020,3.418,0
1540168290.002,60.547,-18.066,22.461,39.551,3.906,0
1540168290.006,67.871,-23.438,18.555,56.152,25.391,0
1540168290.010,61.523,-14.160,8.789,60.059,-17.578,0
1540168290.014,71.777,-3.418,17.578,69.336,13.672,0
1540168290.018,82.031,-2.930,24.902,51.270,8.301,0
1540168290.022,77.637,6.348,22.461,51.758,10.254,0
1540168290.026,82.520,3.418,7.324,67.383,-2.930,0
1540168290.030,92.773,-13.672,5.859,70.312,30.762,0
1540168290.034,89.844,-5.859,18.555,63.965,90.332,0
1540168290.038,66.406,3.906,26.855,49.316,42.969,0
1540168290.041,60.059,8.301,27.344,41.992,-22.949,0
1540168290.045,56.152,13.184,21.973,56.152,-3.418,0
1540168290.049,71.777,16.113,21.484,75.195,30.273,0
1540168290.053,88.867,-15.137,19.043,73.242,22.949,0
1540168290.057,74.219,-12.207,-21.973,72.266,-3.906,0
1540168290.061,86.914,10.254,-14.648,70.801,11.719,0
1540168290.065,88.379,8.301,31.738,58.594,34.668,0
1540168290.069,83.496,15.137,4.883,60.059,43.945,0
1540168290.073,68.848,7.812,25.879,61.523,78.613,1
1540168290.077,68.848,16.113,56.641,49.316,40.527,0
1540168290.080,79.590,12.695,45.410,56.641,4.883,0
1540168290.084,71.777,5.371,40.039,78.613,44.434,0
1540168290.088,70.312,11.719,21.973,64.453,96.191,0
1540168290.092,66.406,8.301,8.789,40.039,63.477,0
1540168290.096,87.891,11.230,-0.488,63.965,50.781,0
1540168290.100,78.613,6.348,-4.883,76.660,7.812,0
1540168290.104,54.688,-7.324,-1.953,49.316,-36.133,0
1540168290.108,61.035,-4.395,2.930,44.434,20.996,0
1540168290.112,80.566,-7.324,-7.812,59.570,6.348,0
1540168290.116,51.758,-6.348,-11.719,37.598,-31.738,0
1540168290.120,43.945,1.465,5.371,54.688,-28.809,0
1540168290.123,52.734,-6.836,11.719,74.219,-25.879,0
1540168290.127,28.809,-7.324,9.277,66.895,1.465,0
1540168290.131,38.574,-10.254,-3.906,91.309,19.531,0
1540168290.135,51.758,-1.953,-11.719,89.844,64.453,0
1540168290.139,56.152,13.672,-22.949,80.566,75.684,0
1540168290.143,43.945,0.000,-9.766,103.027,43.457,0
1540168290.147,32.227,-9.277,10.742,124.023,30.273,0
1540168290.151,50.293,-6.348,0.488,119.629,47.852,0
1540168290.155,62.500,-13.672,-17.090,89.844,76.660,0
1540168290.159,58.594,-7.812,-29.297,57.617,48.828,0
1540168290.163,69.336,-5.859,-6.836,72.266,11.230,0
1540168290.166,84.961,4.883,9.277,44.922,24.414,0
1540168290.170,52.734,21.973,-9.766,-7.324,42.480,0
1540168290.174,-2.441,11.719,-14.648,-11.230,62.988,0
1540168290.178,16.602,7.324,-2.441,19.531,72.266,0
1540168290.182,46.387,0.488,-5.859,36.133,72.266,0
1540168290.186,43.457,-3.418,-14.160,44.434,70.801,0
1540168290.190,42.969,-2.441,-16.113,48.340,35.645,0
1540168290.194,33.203,-10.254,-25.879,36.133,-1.465,0
1540168290.198,39.551,-18.066,-23.438,61.523,52.246,0
1540168290.202,66.406,-19.043,-8.301,72.754,117.188,0
1540168290.205,73.730,-3.418,-20.020,47.852,65.918,0
1540168290.209,30.762,8.789,-9.277,24.902,38.086,0
1540168290.213,9.766,-0.488,13.184,8.789,31.250,0
1540168290.217,22.949,-2.930,8.789,23.926,-12.207,0
1540168290.221,23.926,0.977,6.836,32.227,38.574,0
1540168290.225,37.109,-13.184,10.742,28.809,35.645,0
1540168290.229,47.852,-12.207,10.254,42.969,38.086,0
1540168290.233,16.113,-9.277,-6.836,20.996,75.684,0
1540168290.237,7.324,-12.207,-29.297,4.395,34.668,0
1540168290.241,38.574,0.488,-18.066,32.227,26.855,0
1540168290.245,20.996,6.348,1.953,14.648,28.809,0
1540168290.248,35.645,4.883,5.371,30.273,5.859,0
1540168290.252,34.668,1.465,6.836,53.223,-32.715,0
1540168290.256,38.086,-2.441,13.672,44.434,-33.203,0
1540168290.260,58.105,2.930,10.254,56.152,11.719,0
1540168290.264,32.227,3.418,2.930,17.578,22.949,0
1540168290.268,24.414,6.836,0.977,1.953,44.922,0
1540168290.272,35.645,11.230,5.371,11.230,12.207,0
1540168290.276,26.855,-6.836,15.137,21.484,31.250,0
1540168290.280,35.156,-7.812,16.113,57.617,51.270,0
1540168290.284,42.969,6.348,-1.953,20.508,32.227,0
1540168290.288,22.949,3.418,-6.348,-11.230,33.691,0
1540168290.291,19.531,-4.883,7.812,20.996,14.160,0
1540168290.295,25.391,-3.418,12.207,20.020,40.039,0
1540168290.299,5.859,-4.883,-13.672,1.953,29.785,0
1540168290.303,14.160,-9.277,-28.320,30.273,-35.156,0
1540168290.307,23.926,-5.859,-5.859,40.039,-24.414,0
1540168290.311,-0.488,-2.441,7.324,-20.508,24.902,0
1540168290.315,11.719,0.000,11.719,3.906,2.930,0
1540168290.319,4.395,-2.441,15.137,19.043,-13.184,0
1540168290.323,18.555,-6.348,18.555,-5.371,20.508,0
1540168290.327,31.250,-6.836,13.672,11.719,46.875,0
1540168290.330,1.465,-1.953,-0.488,21.973,24.902,0
1540168290.334,-10.254,1.465,1.465,43.945,0.977,0
1540168290.338,-5.859,1.465,2.441,39.551,-15.625,0
1540168290.342,-2.930,0.000,-6.836,22.949,6.836,0
1540168290.346,12.695,-4.395,0.977,11.719,60.547,0
1540168290.350,24.414,1.465,-1.953,-11.719,52.734,0
1540168290.354,21.484,4.395,-11.230,6.348,38.086,0
1540168290.358,14.160,2.441,-6.348,26.367,14.648,0
1540168290.362,25.879,3.906,17.090,49.805,5.859,0
1540168290.366,48.340,-0.488,28.809,48.828,16.602,0
1540168290.370,2.441,14.160,19.531,-7.324,13.184,0
1540168290.373,-30.273,19.531,18.066,-11.719,52.734,0
1540168290.377,-15.137,12.207,25.879,12.207,67.383,0
1540168290.381,-5.859,9.766,13.672,17.090,21.973,0
1540168290.385,-4.395,8.301,5.859,12.207,58.594,0
1540168290.389,9.766,6.348,5.371,10.254,81.543,0
1540168290.393,45.898,8.301,6.836,40.039,47.363,0
1540168290.397,44.434,8.789,20.508,57.129,37.109,0
1540168290.401,16.602,-4.883,20.996,38.574,75.195,0
1540168290.405,26.367,-5.371,13.184,12.695,74.707,0
1540168290.409,16.602,4.395,14.648,14.648,-12.207,0
1540168290.413,22.949,18.066,6.836,12.207,-10.254,0
1540168290.416,45.410,20.020,-11.230,41.016,54.199,0
1540168290.420,20.020,-1.953,9.766,19.043,46.875,0
1540168290.424,20.996,-9.766,30.762,-13.672,30.273,0
1540168290.428,51.758,-1.465,33.691,41.016,34.668,0
1540168290.432,52.734,-6.836,20.020,50.293,39.062,0
1540168290.436,54.199,-6.348,-20.996,40.527,19.043,0
1540168290.440,40.527,11.230,-7.324,14.160,77.637,0
1540168290.444,6.836,5.859,30.762,-3.906,126.953,0
1540168290.448,-4.883,-3.418,42.969,0.977,29.297,0
1540168290.452,7.812,-2.441,36.621,9.277,8.301,0
1540168290.455,28.809,-1.465,22.949,-11.719,65.918,0
1540168290.459,50.293,4.883,27.832,-0.488,50.293,0
1540168290.463,65.918,9.277,23.926,45.898,-20.020,0
1540168290.467,62.500,3.418,10.742,62.012,-36.133,0
1540168290.471,34.668,-4.395,16.113,43.457,-16.602,0
1540168290.475,17.578,-0.488,13.184,26.367,18.555,0
1540168290.479,40.039,7.812,3.418,52.734,71.289,0
1540168290.483,29.297,15.137,1.953,53.223,63.477,0
1540168290.487,13.672,12.695,21.484,41.504,48.828,0
1540168290.491,33.691,2.441,24.902,39.062,54.688,0
1540168290.495,29.297,-1.953,19.531,46.875,33.203,0
1540168290.498,6.836,2.930,32.715,36.621,13.184,0
1540168290.502,29.297,10.254,27.344,4.883,12.695,0
1540168290.506,41.992,7.812,16.113,56.152,-1.953,0
1540168290.510,29.297,8.301,22.949,47.852,9.766,0
1540168290.514,23.926,15.137,12.207,-0.488,42.480,0
1540168290.518,20.996,12.695,2.441,33.203,48.340,0
1540168290.522,39.062,0.000,21.973,53.711,61.523,0
1540168290.526,28.320,3.418,30.273,27.832,44.922,0
1540168290.530,22.461,8.789,31.250,38.086,14.160,0
1540168290.534,0.488,-2.930,10.742,49.316,-9.277,0
1540168290.538,-12.207,-3.418,4.883,27.344,1.953,0
1540168290.541,10.742,2.930,39.062,19.043,-2.441,0
1540168290.545,6.348,8.301,36.621,8.301,28.809,0
1540168290.549,24.902,17.090,17.090,29.297,49.316,0
1540168290.553,27.832,15.137,16.113,42.969,24.902,0
1540168290.557,32.227,10.742,30.762,45.410,8.301,0
1540168290.561,42.480,5.859,11.719,59.082,24.902,0
1540168290.565,33.691,2.930,-9.277,70.312,24.414,0
1540168290.569,18.066,10.254,33.691,44.922,-25.391,0
1540168290.573,23.926,8.789,46.875,5.371,-11.719,0
1540168290.577,16.602,4.395,28.809,6.836,2.930,0
1540168290.580,14.648,0.000,26.855,13.672,40.527,0
1540168290.584,30.273,1.953,18.555,17.090,-7.324,0
1540168290.588,29.297,12.207,9.766,20.020,-64.453,0
1540168290.592,45.410,13.672,10.742,32.715,21.484,0
1540168290.596,62.500,9.277,23.926,49.316,77.637,0
1540168290.600,49.805,1.953,32.715,27.832,71.289,0
1540168290.604,41.016,2.930,32.715,34.668,44.922,0
1540168290.608,33.203,8.301,28.809,35.645,56.152,0
1540168290.612,5.859,10.742,24.414,15.625,29.785,0
1540168290.616,7.812,11.230,13.184,23.438,34.668,0
1540168290.620,45.410,10.254,1.465,29.785,55.664,0
1540168290.623,40.527,14.160,9.766,28.320,64.941,0
1540168290.627,31.250,18.555,24.414,33.691,87.402,0
1540168290.631,30.273,17.578,33.203,16.113,33.691,0
1540168290.635,16.602,15.137,38.574,14.160,43.457,0
1540168290.639,28.809,14.160,42.480,29.785,90.820,0
1540168290.643,12.695,8.301,34.180,26.367,53.711,0
1540168290.647,26.367,11.230,30.762,33.691,34.180,0
1540168290.651,47.852,17.578,30.762,42.480,16.602,0
1540168290.655,16.602,12.207,17.578,8.301,27.832,0
1540168290.659,21.973,9.277,10.742,6.348,20.996,0
1540168290.663,41.504,17.578,12.207,30.762,-19.531,0
1540168290.666,40.039,15.137,31.250,15.625,-20.020,0
1540168290.670,39.551,6.348,41.016,11.230,-0.977,0
1540168290.674,22.461,7.324,31.738,26.367,59.570,0
1540168290.678,21.484,13.184,9.277,27.344,55.176,0
1540168290.682,50.293,19.531,17.090,28.320,-19.043,0
1540168290.686,47.852,19.531,32.715,31.738,-20.996,0
1540168290.690,20.508,16.113,22.949,21.484,19.531,0
1540168290.694,27.344,12.695,26.367,29.785,53.223,0
1540168290.698,46.875,12.695,26.855,44.434,17.578,0
1540168290.702,43.945,11.719,20.508,30.762,-20.996,0
1540168290.705,33.691,4.883,13.672,20.508,61.035,0
1540168290.709,42.969,8.789,16.113,21.973,65.918,0
1540168290.713,52.246,17.090,19.043,30.762,13.184,0
1540168290.717,42.480,1.953,21.484,30.762,-8.789,0
1540168290.721,41.992,1.953,28.320,18.555,20.508,0
1540168290.725,40.527,27.344,18.555,19.043,74.707,0
1540168290.729,39.551,22.949,20.996,34.668,-3.418,0
1540168290.733,41.992,13.184,35.156,29.297,-11.230,0
1540168290.737,36.133,18.066,29.785,17.090,47.852,0
1540168290.741,24.414,13.184,28.809,20.020,62.988,0
1540168290.745,22.949,10.742,24.902,21.484,57.617,1
1540168290.748,24.902,1.953,12.695,28.320,33.203,0
1540168290.752,23.926,-4.395,27.344,23.926,64.941,0
1540168290.756,23.438,-1.465,27.832,10.742,48.340,0
1540168290.760,10.742,-5.371,26.367,18.555,43.945,0
1540168290.764,1.953,-2.441,30.273,28.809,61.035,0
1540168290.768,6.348,14.160,25.391,13.184,26.855,0
1540168290.772,18.066,25.879,11.719,0.977,45.898,0
1540168290.776,9.277,17.578,3.418,12.207,56.641,0
1540168290.780,2.441,7.324,21.973,16.602,35.645,0
1540168290.784,10.742,7.812,41.992,23.926,5.859,0
1540168290.788,17.090,5.859,30.273,18.066,18.066,0
1540168290.791,23.926,7.324,11.230,15.137,44.922,0
1540168290.795,18.555,9.277,16.602,24.414,-31.738,0
1540168290.799,2.441,13.672,23.438,22.461,-40.039,0
1540168290.803,11.230,16.602,27.832,7.812,33.203,0
1540168290.807,32.227,15.137,33.691,16.602,44.434,0
1540168290.811,29.785,14.648,27.344,35.156,11.230,0
1540168290.815,27.344,10.742,24.414,28.809,-47.363,0
1540168290.819,33.203,10.254,20.020,35.156,-20.020,0
1540168290.823,27.832,12.695,17.090,36.133,-2.441,0
1540168290.827,23.926,14.160,24.902,20.996,13.184,0
1540168290.830,33.203,17.578,24.414,13.672,80.566,0
1540168290.834,33.691,16.113,25.391,26.367,54.688,0
1540168290.838,34.668,13.672,21.973,35.645,-10.254,0
1540168290.842,39.062,17.090,25.391,35.156,15.137,0
1540168290.846,36.133,16.113,29.785,25.391,0.000,0
1540168290.850,25.391,16.602,20.020,36.621,41.992,0
1540168290.854,36.133,20.508,24.902,38.086,56.152,0
1540168290.858,49.805,21.973,23.438,36.133,12.695,0
1540168290.862,49.805,19.043,9.277,39.551,37.598,0
1540168290.866,45.410,20.996,14.160,44.922,17.090,0
1540168290.870,38.086,19.043,20.996,45.410,-2.441,0
1540168290.873,42.969,13.672,30.273,41.504,52.246,0
1540168290.877,45.410,10.254,24.902,38.574,57.129,0
1540168290.881,50.781,11.230,16.113,41.992,25.879,0
1540168290.885,42.969,17.090,31.738,46.875,23.926,0
1540168290.889,36.133,17.090,30.273,38.574,55.176,0
1540168290.893,48.828,22.461,23.926,36.133,41.504,0
1540168290.897,50.781,19.043,8.789,42.480,8.789,0
1540168290.901,41.992,23.438,-8.789,45.410,-7.324,0
1540168290.905,47.363,8.301,17.090,31.738,-10.254,0
1540168290.909,41.992,-14.648,43.945,16.113,-36.133,0
1540168290.913,27.344,23.926,32.715,7.812,-31.738,0
1540168290.916,28.320,41.992,24.902,18.555,21.973,0
1540168290.920,49.316,39.551,27.832,35.645,38.574,0
1540168290.924,53.711,37.109,19.043,27.832,91.797,0
1540168290.928,45.410,19.043,21.973,22.461,45.898,0
1540168290.932,41.504,17.090,29.297,37.109,-35.645,0
1540168290.936,34.668,22.949,27.344,36.133,18.066,0
1540168290.940,33.203,23.438,15.137,26.855,33.691,0
1540168290.944,45.898,21.484,-2.441,29.785,14.160,0
1540168290.948,48.340,18.555,14.160,32.227,50.293,0
1540168290.952,54.199,23.438,45.898,39.551,27.344,0
1540168290.955,63.965,26.855,30.762,39.062,36.133,0
1540168290.959,58.105,29.785,9.766,29.297,52.246,0
1540168290.963,45.898,13.672,18.066,26.367,47.852,0
1540168290.967,40.527,0.977,22.949,32.227,85.449,0
1540168290.971,37.109,11.719,15.137,45.410,-1.465,0
1540168290.975,48.828,21.973,5.859,50.293,-48.828,0
1540168290.979,50.781,23.438,17.090,54.688,-39.062,0
1540168290.983,34.668,19.043,18.066,43.457,-11.719,0
1540168290.987,41.992,19.043,13.672,44.434,38.574,0
1540168290.991,56.641,15.137,13.184,60.059,21.973,0
1540168290.995,52.734,18.066,4.883,57.129,22.949,0
1540168290.998,53.711,30.273,4.395,36.621,29.785,0
1540168291.002,58.594,30.273,13.672,27.832,20.996,0
1540168291.006,53.223,17.578,3.906,38.574,6.836,0
1540168291.010,57.129,14.160,5.859,51.270,11.230,0
1540168291.014,54.199,21.973,20.508,48.340,35.156,0
1540168291.018,51.270,18.555,12.695,48.340,8.789,0
1540168291.022,59.082,14.160,6.836,51.758,-8.789,0
1540168291.026,62.500,20.020,6.348,52.246,26.367,0
1540168291.030,62.988,19.043,4.395,58.594,24.902,0
1540168291.034,60.059,11.719,-1.953,66.406,12.695,0
1540168291.038,63.477,14.648,-16.602,52.246,63.477,0
1540168291.041,57.129,14.648,-19.043,43.945,79.590,0
1540168291.045,49.316,11.230,-16.602,56.641,31.250,0
1540168291.049,54.688,6.348,-12.207,52.246,11.230,0
1540168291.053,72.266,7.812,-1.953,61.523,-46.875,0
1540168291.057,79.590,14.648,6.348,66.895,-31.250,0
1540168291.061,65.918,16.602,1.953,65.918,29.785,0
1540168291.065,63.965,13.184,-5.859,69.336,29.297,0
1540168291.069,67.871,9.277,-7.324,65.918,51.270,0
1540168291.073,68.848,15.137,-19.043,61.523,77.637,0
1540168291.077,66.406,10.742,-8.789,61.523,41.992,0
1540168291.080,54.199,5.371,11.719,62.012,58.594,0
1540168291.084,57.617,15.625,15.137,68.359,76.172,0
1540168291.088,72.754,16.602,-0.488,73.242,34.180,0
1540168291.092,84.961,20.020,-7.324,62.988,65.918,0
1540168291.096,81.543,21.973,-5.859,62.500,75.195,0
1540168291.100,62.500,6.348,2.441,69.824,23.926,0
1540168291.104,61.523,15.137,17.578,64.453,15.137,0
1540168291.108,63.965,22.949,11.230,61.523,32.227,0
1540168291.112,55.664,13.184,5.859,57.617,16.602,0
1540168291.116,67.871,10.742,9.277,72.266,-32.715,0
1540168291.120,78.125,15.137,7.324,73.242,-0.488,0
1540168291.123,70.801,21.484,7.324,49.316,45.410,0
1540168291.127,58.594,21.484,10.742,50.781,26.855,0
1540168291.131,47.363,15.137,14.648,51.270,8.789,0
1540168291.135,49.805,17.090,12.207,42.969,42.969,0
1540168291.139,51.270,23.438,3.418,43.457,41.016,0
1540168291.143,53.711,19.531,0.977,41.016,-25.391,0
1540168291.147,44.922,17.090,3.418,43.457,24.902,0
1540168291.151,40.527,14.160,1.465,43.457,69.336,0
1540168291.155,83.984,14.160,0.977,58.105,77.637,0
1540168291.159,91.797,17.090,0.488,76.172,90.332,0
1540168291.163,63.965,14.648,3.418,62.500,18.555,0
1540168291.166,46.875,22.461,3.906,48.828,8.789,0
1540168291.170,59.570,24.414,-6.836,53.711,10.254,0
1540168291.174,78.613,14.648,-15.137,44.434,-8.789,0
1540168291.178,55.176,17.090,13.184,57.617,35.156,0
1540168291.182,69.336,31.738,28.320,83.496,44.434,0
1540168291.186,79.590,30.762,4.883,53.711,34.180,0
1540168291.190,53.711,25.879,6.348,27.344,35.645,0
1540168291.194,40.527,25.879,8.301,28.809,-20.996,0
1540168291.198,44.922,25.391,9.277,35.645,10.742,0
1540168291.202,65.430,16.113,14.160,38.086,86.426,0
1540168291.205,74.707,-4.395,14.160,24.902,96.680,0
1540168291.209,42.480,1.465,9.277,11.719,20.996,0
1540168291.213,30.762,19.531,2.441,0.000,62.500,0
1540168291.217,39.062,26.367,-0.488,8.301,104.492,0
1540168291.221,38.086,26.855,-8.301,24.414,35.645,0
1540168291.225,21.973,20.508,-7.812,19.531,10.254,0
1540168291.229,8.301,14.648,0.977,3.418,55.176,0
1540168291.233,8.789,14.648,-8.301,6.836,34.180,0
1540168291.237,4.395,13.672,10.254,9.766,15.137,0
1540168291.241,6.348,12.695,16.113,-3.418,-15.137,0
1540168291.245,10.742,16.113,-1.953,10.742,-16.113,0
1540168291.248,-10.742,10.742,3.906,-0.488,9.766,0
1540168291.252,12.695,10.742,-5.859,1.465,19.531,0
1540168291.256,32.715,12.695,4.395,25.879,-6.348,0
1540168291.260,17.090,7.812,21.484,23.438,-29.785,0
1540168291.264,21.973,19.531,20.020,11.719,29.785,0
1540168291.268,6.348,15.625,-2.930,-8.301,82.031,0
1540168291.272,10.254,5.859,-9.766,-10.254,76.660,0
1540168291.276,6.836,12.695,12.207,17.578,62.500,0
1540168291.280,12.695,12.207,26.367,17.090,60.547,0
1540168291.284,22.461,14.648,23.438,14.648,7.812,0
1540168291.288,24.414,12.695,7.812,20.508,9.277,0
1540168291.291,14.160,8.301,8.301,14.160,-13.184,0
1540168291.295,1.465,24.414,-13.672,13.184,-0.977,0
1540168291.299,24.414,31.738,-19.531,0.977,92.773,0
1540168291.303,48.828,9.277,31.738,21.484,30.762,0
1540168291.307,44.922,3.418,41.992,38.086,-30.273,0
1540168291.311,13.184,29.785,17.090,13.184,4.395,0
1540168291.315,4.395,14.160,-0.488,5.859,32.715,0
1540168291.319,21.484,0.488,-14.648,37.109,2.441,0
1540168291.323,10.742,15.625,-7.324,19.043,41.016,0
1540168291.327,20.508,12.695,2.441,1.465,65.918,0
1540168291.330,18.555,25.879,-8.301,8.789,4.883,0
1540168291.334,21.484,9.766,-8.301,18.066,12.695,0
1540168291.338,15.137,0.977,-1.953,29.297,33.203,0
1540168291.342,9.766,10.742,-6.348,19.531,20.508,0
1540168291.346,44.922,-3.418,-9.766,32.227,2.441,0
1540168291.350,30.273,3.418,-36.133,27.832,66.895,0
1540168291.354,10.254,2.930,-16.602,16.113,61.523,0
1540168291.358,20.508,22.949,24.902,19.043,-9.277,0
1540168291.362,14.160,47.852,17.578,6.836,49.316,0
1540168291.366,11.230,11.719,25.879,11.230,79.590,0
1540168291.370,22.461,9.766,15.625,12.207,-7.324,1
1540168291.373,39.551,19.043,0.488,22.949,-30.273,0
1540168291.377,54.688,23.926,10.742,52.734,36.621,0
1540168291.381,49.316,31.738,5.859,51.758,35.645,0
1540168291.385,38.574,24.414,-0.977,22.949,-32.715,0
1540168291.389,14.648,8.301,-7.324,10.254,22.461,0
1540168291.393,29.785,10.742,-28.809,25.391,77.637,0
1540168291.397,56.641,10.254,-12.695,36.621,-14.160,0
1540168291.401,41.016,18.555,8.789,13.672,12.695,0
1540168291.405,26.855,13.672,18.066,-0.977,87.402,0
1540168291.409,28.809,21.484,16.602,3.906,105.957,0
1540168291.413,16.113,30.762,3.418,10.254,76.172,0
1540168291.416,12.207,12.207,-2.930,25.879,58.594,0
1540168291.420,20.996,17.578,-7.812,2.441,45.410,0
1540168291.424,4.883,29.785,-8.301,-20.996,2.930,0
1540168291.428,-13.672,31.738,-10.254,-3.418,7.324,0
1540168291.432,-29.297,29.297,-18.555,-17.090,-29.297,0
1540168291.436,-36.133,28.320,-20.020,-32.715,-14.648,0
1540168291.440,-21.484,23.438,-6.836,-36.621,3.906,0
1540168291.444,6.836,21.973,0.488,-23.926,-46.387,0
1540168291.448,-8.789,36.133,-4.883,-8.301,-22.949,0
1540168291.452,-30.273,60.547,0.488,-31.738,-2.930,0
1540168291.455,-27.344,54.688,11.230,-55.664,24.414,0
1540168291.459,-51.270,41.016,2.930,-54.199,37.598,0
1540168291.463,-60.547,49.805,-2.441,-53.223,67.383,0
1540168291.467,-58.105,49.805,-7.812,-59.082,70.312,0
1540168291.471,-71.289,41.504,-15.625,-57.129,25.879,0
1540168291.475,-55.664,46.387,-9.277,-44.922,15.137,0
1540168291.479,-38.086,49.316,13.672,-44.922,-4.395,0
1540168291.483,-36.621,38.574,15.625,-40.527,-9.277,0
1540168291.487,-22.949,45.898,-13.672,-27.832,19.531,0
1540168291.491,6.836,52.246,-6.836,-20.996,64.453,0
1540168291.495,-5.371,51.758,10.254,-28.320,40.039,0
1540168291.498,-31.250,43.457,14.160,-30.273,-12.207,0
1540168291.502,-15.137,44.434,15.137,-24.902,7.812,0
1540168291.506,-20.508,39.062,6.348,-27.344,40.039,0
1540168291.510,-36.133,34.668,11.719,-26.367,85.449,0
1540168291.514,-8.301,37.598,19.531,-24.902,91.309,0
1540168291.518,7.324,35.645,9.277,-16.113,44.922,0
1540168291.522,-1.953,44.922,0.977,-16.113,6.836,0
1540168291.526,-23.926,38.086,-3.418,-18.555,32.715,0
1540168291.530,-6.836,33.691,-5.859,-8.301,77.637,0
1540168291.534,12.207,26.367,-1.465,2.930,73.242,0
1540168291.538,-10.742,21.484,1.465,0.977,60.547,0
1540168291.541,-2.441,20.996,18.066,9.277,79.102,0
1540168291.545,1.465,21.484,30.273,6.836,78.613,0
1540168291.549,-9.766,23.438,24.414,4.395,56.641,0
1540168291.553,-11.230,14.160,20.996,20.508,22.949,0
1540168291.557,14.648,9.766,15.137,26.367,-6.836,0
1540168291.561,28.320,33.691,9.277,24.902,-20.996,0
1540168291.565,33.203,21.973,5.371,33.203,20.508,0
1540168291.569,33.203,10.254,0.488,51.270,68.359,0
1540168291.573,25.391,25.391,1.953,37.109,39.062,0
1540168291.577,45.410,4.395,11.230,35.156,72.266,0
1540168291.580,41.016,19.043,9.766,31.250,70.801,0
1540168291.584,37.109,1.953,5.371,45.410,-26.367,0
1540168291.588,39.062,-5.371,-3.906,59.082,28.809,0
1540168291.592,37.109,15.625,1.953,49.805,48.828,0
1540168291.596,46.387,-0.488,21.973,49.805,-15.625,0
1540168291.600,41.504,-5.371,27.344,50.781,44.922,0
1540168291.604,42.969,8.789,30.273,50.781,14.648,0
1540168291.608,58.105,15.625,11.719,53.223,-10.742,0
1540168291.612,62.500,-1.953,15.137,62.988,27.832,0
1540168291.616,26.367,-0.488,23.926,53.711,26.367,0
1540168291.620,39.551,3.906,21.484,42.480,-10.254,0
1540168291.623,69.824,6.348,31.250,53.711,-48.828,0
1540168291.627,46.387,5.371,30.762,60.059,-11.719,0
1540168291.631,33.203,4.395,24.414,57.617,21.973,0
1540168291.635,50.293,20.508,5.371,54.688,48.828,0
1540168291.639,58.594,19.043,11.719,50.781,-15.625,0
1540168291.643,39.062,0.977,35.645,44.922,-47.852,0
1540168291.647,12.695,7.812,33.203,17.090,8.789,0
1540168291.651,42.969,5.371,23.438,33.691,12.207,0
1540168291.655,46.875,10.742,18.066,55.176,-8.301,0
1540168291.659,28.320,18.555,15.137,45.410,26.855,0
1540168291.663,35.645,10.742,19.531,35.156,50.781,0
1540168291.666,1.465,16.113,22.461,9.766,44.922,0
1540168291.670,-4.883,18.555,26.367,-2.441,36.621,0
1540168291.674,11.230,15.137,31.250,10.254,24.902,0
1540168291.678,-6.348,25.879,24.414,14.160,25.879,0
1540168291.682,-15.625,30.762,19.531,-23.438,57.617,0
1540168291.686,-30.762,19.043,27.344,-53.223,30.273,0
1540168291.690,-41.016,41.016,34.668,-30.762,27.344,0
1540168291.694,-59.082,51.270,33.203,-18.555,19.531,0
1540168291.698,-38.086,26.855,30.273,-25.391,14.160,0
1540168291.702,-18.555,37.598,18.066,-38.574,80.566,0
1540168291.705,-42.969,52.734,2.441,-25.879,78.613,0
1540168291.709,-89.844,50.293,32.227,-44.922,102.539,0
1540168291.713,-53.223,46.387,55.664,-50.293,88.379,0
1540168291.717,-20.996,54.688,30.762,-31.250,43.945,0
1540168291.721,-39.062,57.617,9.766,-37.598,52.246,0
1540168291.725,-73.242,50.293,56.641,-54.199,26.855,0
1540168291.729,-96.191,50.781,81.055,-62.500,51.758,0
1540168291.733,-49.805,40.527,54.199,-39.551,-20.020,0
1540168291.737,-20.020,34.180,53.223,-20.996,-52.246,0
1540168291.741,-24.414,44.922,41.504,-20.020,47.852,0
1540168291.745,-26.367,33.203,41.016,-33.203,34.668,0
1540168291.748,-25.879,18.555,41.016,-27.832,35.645,0
1540168291.752,-25.391,31.738,23.926,-3.418,53.223,0
1540168291.756,-16.602,41.016,19.043,11.230,11.719,0
1540168291.760,-0.488,29.297,21.484,12.695,5.371,0
1540168291.764,13.672,19.043,33.203,8.301,-29.297,0
1540168291.768,4.883,21.973,50.781,21.484,-49.316,0
1540168291.772,27.832,10.254,53.223,31.738,7.324,0
1540168291.776,37.598,15.137,40.527,4.395,87.402,0
1540168291.780,13.184,18.066,23.438,16.113,37.598,0
1540168291.784,36.621,0.977,24.414,48.828,19.043,0
1540168291.788,65.918,3.418,19.043,58.594,43.945,0
1540168291.791,55.664,11.719,11.230,51.758,-24.414,0
1540168291.795,38.086,-3.418,43.457,41.016,-11.230,0
1540168291.799,41.992,-12.207,37.109,40.039,31.738,0
1540168291.803,54.688,-0.977,6.836,44.922,32.715,0
1540168291.807,55.664,-4.883,28.320,57.129,-7.324,0
1540168291.811,49.316,-0.488,20.508,53.223,11.719,0
1540168291.815,66.406,3.906,7.324,77.637,70.801,0
1540168291.819,78.613,0.000,9.766,86.914,85.938,0
1540168291.823,80.078,-13.672,26.367,69.336,65.918,0
1540168291.827,80.078,-3.906,20.996,82.031,-13.672,0
1540168291.830,51.758,3.418,32.715,54.688,-48.828,0
1540168291.834,57.129,-4.883,47.363,58.594,25.391,0
1540168291.838,86.426,-4.395,29.785,86.426,20.996,0
1540168291.842,70.312,-8.301,32.227,71.777,27.344,0
1540168291.846,65.918,1.465,29.297,73.242,21.484,0
1540168291.850,61.035,-0.977,25.879,78.613,9.766,0
1540168291.854,66.406,0.000,10.254,79.102,26.855,0
1540168291.858,90.820,0.977,13.184,83.008,38.086,0
1540168291.862,93.262,-3.418,28.320,79.102,14.648,0
1540168291.866,70.801,5.371,38.086,78.613,9.277,0
1540168291.870,63.477,0.488,34.180,73.242,-0.488,0
1540168291.873,64.453,-2.930,15.625,50.781,-15.137,0
1540168291.877,71.289,-12.207,31.250,57.617,1.465,0
1540168291.881,66.895,-14.160,32.227,64.453,29.297,0
1540168291.885,49.316,-3.418,-1.465,61.035,16.113,0
1540168291.889,56.152,-2.930,13.672,70.312,28.320,0
1540168291.893,72.754,-1.465,41.016,75.195,56.152,0
1540168291.897,34.668,-17.578,49.316,32.227,56.641,0
1540168291.901,20.996,-17.090,11.719,35.645,44.922,0
1540168291.905,69.824,-4.395,8.301,73.242,4.883,0
1540168291.909,74.219,-6.836,32.715,66.895,-7.812,0
1540168291.913,59.570,-0.977,21.973,79.102,13.184,0
1540168291.916,46.875,-4.395,29.785,61.523,19.531,0
1540168291.920,67.871,0.488,20.508,41.992,38.574,0
1540168291.924,75.684,4.883,5.371,67.383,58.594,0
1540168291.928,48.340,-7.324,19.043,76.660,53.711,0
1540168291.932,53.223,3.418,17.090,76.172,30.762,0
1540168291.936,47.852,5.371,24.902,57.617,31.738,0
1540168291.940,43.457,-7.324,45.410,46.875,57.129,0
1540168291.944,53.223,0.488,33.691,53.223,41.504,0
1540168291.948,63.477,2.441,7.812,64.941,30.273,0
1540168291.952,51.270,6.348,8.301,66.895,23.438,0
1540168291.955,66.406,12.207,13.672,61.523,23.926,0
1540168291.959,66.895,2.441,8.789,52.734,48.340,0
1540168291.963,57.617,3.418,3.906,52.246,38.574,0
1540168291.967,49.805,0.488,9.277,52.734,33.691,1
1540168291.971,35.156,-6.348,11.230,43.945,-36.133,0
1540168291.975,46.875,6.836,17.090,42.969,1.465,0
1540168291.979,26.855,11.719,30.273,36.133,105.469,0
1540168291.983,36.621,1.953,23.438,44.922,71.289,0
1540168291.987,57.617,2.930,13.672,61.523,0.000,0
1540168291.991,58.105,9.766,14.648,47.852,-1.465,0
1540168291.995,55.664,20.508,23.438,34.180,71.289,0
1540168291.998,29.297,22.461,37.598,17.578,54.688,0
1540168292.002,42.480,1.465,17.090,41.992,-12.207,0
1540168292.006,60.547,-1.953,7.812,26.367,11.719,0
1540168292.010,56.641,9.766,18.555,17.578,6.836,0
1540168292.014,42.480,19.531,16.113,41.504,-19.043,0
1540168292.018,43.945,11.230,21.484,33.203,5.859,0
1540168292.022,50.293,3.418,10.254,51.270,7.324,0
1540168292.026,35.156,13.184,2.930,48.340,-40.039,0
1540168292.030,36.621,7.812,14.160,24.902,-14.160,0
1540168292.034,31.250,4.883,4.395,20.508,55.176,0
1540168292.038,33.691,9.766,-1.465,40.039,77.148,0
1540168292.041,36.133,13.672,-0.977,70.312,55.176,0
1540168292.045,19.043,10.742,15.137,71.289,23.926,0
1540168292.049,15.625,-1.953,49.316,40.039,40.527,0
1540168292.053,46.387,22.461,25.879,35.156,13.184,0
1540168292.057,51.270,25.879,3.418,59.082,-13.184,0
1540168292.061,44.434,11.230,0.488,74.219,56.152,0
1540168292.065,40.039,17.578,2.441,67.383,94.238,0
1540168292.069,50.781,10.742,19.531,57.617,48.828,0
1540168292.073,67.383,21.484,-3.418,63.965,20.996,0
1540168292.077,49.805,11.230,20.508,59.082,43.945,0
1540168292.080,17.578,11.230,43.945,20.020,51.758,0
1540168292.084,34.668,23.926,13.184,35.645,60.547,0
1540168292.088,57.617,10.254,18.555,72.266,42.480,0
1540168292.092,38.574,14.160,40.527,56.152,25.879,0
1540168292.096,8.301,19.043,24.902,41.016,2.930,0
1540168292.100,16.113,6.348,7.812,38.574,-10.254,0
1540168292.104,54.688,12.695,7.812,39.551,-1.465,0
1540168292.108,54.199,15.625,9.277,42.480,57.129,0
1540168292.112,31.250,13.184,11.230,42.969,50.781,0
1540168292.116,36.133,15.137,-12.695,40.527,23.438,0
1540168292.120,27.344,12.207,-3.906,17.090,7.812,0
1540168292.123,12.695,17.578,20.020,18.555,-26.855,0
1540168292.127,28.809,20.508,15.625,40.527,-13.184,0
1540168292.131,46.387,13.672,9.766,43.945,-6.348,0
1540168292.135,52.734,12.207,-2.930,45.898,20.020,0
1540168292.139,40.039,13.672,11.230,31.738,86.426,0
1540168292.143,23.438,16.113,19.531,28.320,107.422,0
1540168292.147,37.598,17.090,17.090,45.410,64.453,0
1540168292.151,46.875,12.207,21.973,41.992,70.801,0
1540168292.155,37.598,7.812,27.344,14.160,69.824,0
1540168292.159,31.738,12.695,23.926,1.465,12.207,0
1540168292.163,53.223,20.020,6.348,47.852,-5.859,0
1540168292.166,61.523,21.973,9.766,60.547,40.039,0
1540168292.170,51.758,22.461,10.254,43.457,64.453,0
1540168292.174,49.316,16.602,26.855,22.949,46.875,0
1540168292.178,46.875,22.949,18.066,11.719,61.035,0
1540168292.182,47.363,18.555,10.254,41.016,101.074,0
1540168292.186,42.480,12.207,27.832,41.992,67.871,0
1540168292.190,39.062,20.020,32.227,25.391,0.977,0
1540168292.194,34.668,22.949,25.879,19.043,29.785,0
1540168292.198,37.109,28.809,13.672,36.133,59.082,0
1540168292.202,38.574,21.484,20.508,43.457,5.859,0
1540168292.205,20.996,20.508,16.602,20.020,35.645,0
1540168292.209,21.484,24.902,20.508,8.789,5.371,0
1540168292.213,45.898,20.020,35.156,25.391,-0.488,0
1540168292.217,43.457,23.438,32.227,41.504,22.949,0
1540168292.221,39.062,20.020,30.762,30.762,-14.160,0
1540168292.225,30.762,13.672,19.531,20.996,28.320,0
1540168292.229,27.344,15.137,15.137,25.879,45.410,0
1540168292.233,33.203,14.160,22.949,24.414,31.250,0
1540168292.237,38.574,19.043,12.207,27.344,-8.789,0
1540168292.241,36.621,23.438,-4.395,25.879,-2.930,0
1540168292.245,29.297,26.367,5.859,35.645,12.695,0
1540168292.248,29.785,28.320,23.926,45.898,27.344,0
1540168292.252,40.527,23.438,25.879,40.527,32.227,0
1540168292.256,53.711,26.855,20.508,33.203,4.883,0
1540168292.260,41.504,21.973,10.742,31.738,0.977,0
1540168292.264,39.551,19.531,4.883,34.668,-2.441,0
1540168292.268,48.340,24.902,6.348,36.133,47.363,0
1540168292.272,33.691,20.508,18.066,33.691,18.066,0
1540168292.276,35.645,25.391,26.367,34.180,-8.301,0
1540168292.280,26.367,22.461,18.555,30.762,41.992,0
1540168292.284,23.926,20.020,12.207,30.273,0.488,0
1540168292.288,45.898,18.555,11.719,42.480,-17.090,0
1540168292.291,38.574,16.113,7.324,31.738,65.430,0
1540168292.295,26.855,19.531,3.418,29.297,46.875,0
1540168292.299,34.668,21.973,0.488,51.758,15.625,0
1540168292.303,44.922,21.973,1.465,48.340,35.645,0
1540168292.307,36.133,13.672,18.066,26.855,33.203,0
1540168292.311,29.297,15.625,29.785,25.391,-19.043,0
1540168292.315,29.785,28.809,25.391,41.992,-16.113,0
1540168292.319,35.156,25.879,22.949,43.945,10.254,0
1540168292.323,46.387,21.973,21.484,41.016,34.668,0
1540168292.327,30.762,19.531,11.719,28.809,9.766,0
1540168292.330,23.926,20.508,12.207,21.484,19.043,0
1540168292.334,39.062,25.391,-2.441,37.109,31.738,0
1540168292.338,44.922,25.391,-2.441,43.457,-40.527,0
1540168292.342,29.297,19.043,19.531,28.320,-24.414,0
1540168292.346,26.855,12.207,22.461,33.203,24.902,0
1540168292.350,23.438,18.066,14.648,33.691,16.602,0
1540168292.354,2.930,20.996,9.277,22.949,13.184,0
1540168292.358,8.301,18.555,19.043,21.484,18.555,0
1540168292.362,30.762,25.879,26.855,29.785,25.879,0
1540168292.366,32.227,24.414,20.996,43.945,39.062,0
1540168292.370,21.484,15.137,10.254,37.598,0.977,0
1540168292.373,33.691,17.578,9.277,36.621,-27.832,0
1540168292.377,24.414,23.926,18.066,33.691,9.766,0
1540168292.381,28.320,25.391,20.508,34.668,47.363,0
1540168292.385,44.922,19.531,7.324,48.340,94.727,0
1540168292.389,42.480,20.020,2.930,36.621,59.082,0
1540168292.393,29.297,22.949,6.348,29.785,-16.602,0
1540168292.397,20.020,22.949,14.648,33.691,5.859,0
1540168292.401,25.879,18.066,18.555,32.227,24.902,0
1540168292.405,20.996,19.531,5.371,32.227,19.043,0
1540168292.409,28.809,21.484,-5.371,33.203,36.621,0
1540168292.413,23.926,21.973,1.465,38.574,36.621,0
1540168292.416,38.086,23.926,12.695,35.645,44.922,0
1540168292.420,41.504,31.250,9.766,28.320,70.312,0
1540168292.424,22.461,24.414,8.301,25.391,57.617,0
1540168292.428,29.785,13.672,7.324,29.785,41.504,0
1540168292.432,32.227,20.020,-1.953,36.621,26.855,0
1540168292.436,27.344,19.531,-6.348,27.344,54.688,0
1540168292.440,15.137,17.578,-11.719,26.855,62.012,0
1540168292.444,34.668,23.438,-7.812,33.691,45.898,0
1540168292.448,33.203,25.391,-1.953,22.949,24.902,0
1540168292.452,29.785,18.555,-13.184,31.250,8.301,0
1540168292.455,41.016,16.113,-6.836,31.738,-3.418,0
1540168292.459,30.762,20.020,8.789,24.902,-19.043,0
1540168292.463,30.273,17.090,6.348,34.180,35.645,0
1540168292.467,32.227,25.879,5.859,24.414,8.301,0
1540168292.471,40.039,30.762,-0.488,20.020,-23.926,0
1540168292.475,49.805,22.461,4.395,34.668,56.152,0
1540168292.479,39.062,25.391,5.859,42.480,10.254,0
1540168292.483,26.367,24.414,0.000,32.715,3.906,0
1540168292.487,12.695,25.879,-3.906,23.438,43.945,0
1540168292.491,20.508,24.414,2.930,23.438,11.230,0
1540168292.495,30.273,20.020,21.973,30.762,47.363,0
1540168292.498,21.973,18.555,20.508,22.461,31.250,0
1540168292.502,20.508,22.461,4.395,14.648,43.945,0
1540168292.506,30.762,25.879,0.000,24.414,82.031,0
1540168292.510,29.785,26.367,4.395,29.297,53.223,0
1540168292.514,15.625,22.949,4.883,31.738,53.223,0
1540168292.518,16.602,22.949,2.930,24.902,91.797,0
1540168292.522,32.715,29.297,-1.953,20.996,0.977,0
1540168292.526,29.297,22.461,7.324,27.344,-9.766,0
1540168292.530,9.277,19.531,15.625,30.273,32.715,0
1540168292.534,8.301,21.484,8.789,29.785,-10.742,0
1540168292.538,16.113,16.602,13.672,15.137,45.410,0
1540168292.541,15.137,21.973,10.742,14.648,60.547,0
1540168292.545,31.738,26.855,1.465,43.945,17.090,0
1540168292.549,38.574,18.066,7.812,38.086,43.457,0
1540168292.553,37.109,16.113,6.348,36.133,46.387,0
1540168292.557,18.066,20.508,9.277,27.832,64.941,1
1540168292.561,9.766,16.602,1.953,20.020,75.195,0
1540168292.565,45.410,16.113,-3.906,42.480,20.020,0
1540168292.569,31.250,22.949,16.113,38.574,-8.301,0
1540168292.573,15.137,17.578,37.109,7.812,15.625,0
1540168292.577,13.672,18.066,32.715,17.578,56.152,0
1540168292.580,26.367,18.555,15.137,45.410,100.098,0
1540168292.584,44.922,16.602,14.648,46.875,31.250,0
1540168292.588,27.344,23.926,15.625,36.621,-31.738,0
1540168292.592,29.297,23.438,17.090,29.297,14.648,0
1540168292.596,30.273,28.320,24.902,31.250,11.719,0
1540168292.600,15.625,23.926,21.973,33.203,44.922,0
1540168292.604,41.992,18.555,31.250,41.992,51.758,0
1540168292.608,49.805,25.391,15.137,43.945,14.648,0
1540168292.612,32.715,26.855,-5.859,31.250,20.020,0
1540168292.616,41.992,25.391,20.996,26.367,38.086,0
1540168292.620,38.086,23.438,28.320,29.785,9.277,0
1540168292.623,37.598,23.438,20.020,21.484,8.301,0
1540168292.627,19.043,16.113,15.137,26.855,-13.184,0
1540168292.631,19.043,15.137,10.742,38.086,-50.293,0
1540168292.635,22.461,21.973,8.789,27.832,-2.930,0
1540168292.639,23.926,20.508,8.301,21.973,-41.016,0
1540168292.643,32.715,21.484,13.184,30.273,-64.941,0
1540168292.647,36.133,20.508,20.996,28.320,-20.508,0
1540168292.651,30.273,22.949,19.531,35.156,46.387,0
1540168292.655,37.109,27.344,13.184,42.480,79.590,0
1540168292.659,56.641,22.461,11.230,32.715,59.082,0
1540168292.663,53.223,19.043,6.348,38.086,115.234,0
1540168292.666,25.879,18.555,15.625,39.551,114.746,0
1540168292.670,23.438,20.020,22.949,22.949,-12.695,0
1540168292.674,37.598,17.578,12.695,19.531,10.254,0
1540168292.678,19.531,17.578,12.207,20.020,82.520,0
1540168292.682,28.809,23.926,0.000,23.438,56.152,0
1540168292.686,45.898,27.832,-7.812,25.391,21.484,0
1540168292.690,42.480,28.320,5.859,28.809,52.246,0
1540168292.694,32.715,24.414,19.043,31.250,92.773,0
1540168292.698,25.879,22.949,22.949,31.250,42.480,0
1540168292.702,39.551,24.902,10.254,24.902,16.113,0
1540168292.705,38.574,25.391,-0.488,24.414,60.059,0
1540168292.709,19.531,27.344,-3.906,22.461,28.809,0
1540168292.713,27.832,28.809,-3.906,20.020,28.809,0
1540168292.717,25.391,31.738,10.254,13.184,88.379,0
1540168292.721,36.621,30.762,16.602,19.043,101.074,0
1540168292.725,52.246,23.926,5.371,15.625,20.996,0
1540168292.729,27.832,16.602,-11.719,21.484,-8.789,0
1540168292.733,27.344,14.648,-3.418,44.434,-12.207,0
1540168292.737,39.062,15.625,19.531,36.133,-17.578,0
1540168292.741,45.898,16.113,30.273,26.855,-49.805,0
1540168292.745,41.992,23.438,19.043,27.344,-38.086,0
1540168292.748,36.133,26.855,5.371,27.344,-24.414,0
1540168292.752,39.551,23.926,9.766,20.020,-17.090,0
1540168292.756,34.180,27.832,14.648,17.090,44.922,0
1540168292.760,27.344,25.879,17.090,19.043,73.730,0
1540168292.764,17.578,19.531,15.137,19.043,30.273,0
1540168292.768,9.277,18.555,6.836,12.207,7.812,0
1540168292.772,33.691,16.113,4.883,17.578,22.949,0
1540168292.776,42.480,19.043,-2.441,29.785,45.410,0
1540168292.780,31.250,26.855,0.977,26.855,54.688,0
1540168292.784,31.738,22.949,10.742,35.156,8.301,0
1540168292.788,31.250,17.090,6.348,34.180,-17.090,0
1540168292.791,39.551,19.531,22.461,13.184,39.062,0
1540168292.795,47.852,20.508,34.668,22.461,70.312,0
1540168292.799,38.574,22.461,27.832,24.902,80.078,0
1540168292.803,47.363,25.879,13.672,19.043,74.219,0
1540168292.807,63.965,24.414,7.812,19.043,81.543,0
1540168292.811,44.434,24.902,14.160,17.578,49.316,0
1540168292.815,37.109,23.438,20.020,21.973,30.762,0
1540168292.819,44.434,24.414,9.277,28.809,20.996,0
1540168292.823,32.227,24.902,10.742,34.180,4.395,0
1540168292.827,32.715,25.391,21.484,42.480,-1.953,0
1540168292.830,24.902,22.949,17.578,32.227,54.199,0
1540168292.834,25.879,24.902,20.508,33.203,97.168,0
1540168292.838,31.738,27.344,16.113,34.180,-11.230,0
1540168292.842,14.648,19.043,11.719,19.531,-31.250,0
1540168292.846,4.395,20.508,21.973,28.320,-5.371,0
1540168292.850,24.414,22.461,14.160,33.691,5.371,0
1540168292.854,39.062,20.996,3.418,29.785,64.941,0
1540168292.858,25.879,20.020,7.324,24.414,59.570,0
1540168292.862,20.508,20.020,0.977,26.855,66.895,0
1540168292.866,6.348,23.926,8.789,41.504,31.250,0
1540168292.870,11.719,20.508,15.625,34.180,-19.043,0
1540168292.873,33.203,19.043,11.230,24.902,7.324,0
1540168292.877,21.973,14.648,23.438,27.344,-13.672,0
1540168292.881,2.441,14.648,25.879,28.320,-10.254,0
1540168292.885,12.695,20.020,18.066,34.668,48.340,0
1540168292.889,24.902,18.555,12.207,26.367,74.707,0
1540168292.893,22.949,22.461,12.695,22.949,40.527,0
1540168292.897,31.738,25.879,19.531,29.785,32.715,0
1540168292.901,35.156,26.855,11.719,28.809,8.789,0
1540168292.905,29.297,23.438,3.418,27.344,-7.324,0
1540168292.909,29.297,25.879,9.277,27.344,50.293,0
1540168292.913,22.461,26.367,12.695,37.109,72.754,0
1540168292.916,13.672,18.555,20.508,34.180,33.691,0
1540168292.920,24.414,21.484,25.879,26.367,11.230,0
1540168292.924,30.762,26.367,23.926,23.926,1.465,0
1540168292.928,24.414,25.879,23.926,20.020,62.012,0
1540168292.932,21.973,26.855,23.438,16.602,126.465,0
1540168292.936,38.086,26.367,18.555,21.484,79.102,0
1540168292.940,37.109,17.090,11.719,25.391,-21.484,0
1540168292.944,40.039,22.461,11.230,30.273,-27.344,0
1540168292.948,37.109,32.227,10.254,32.715,30.273,0
1540168292.952,31.738,34.180,-3.906,23.926,78.613,0
1540168292.955,40.039,30.762,-3.906,18.555,67.383,0
1540168292.959,37.109,26.855,17.090,21.484,41.016,0
1540168292.963,34.180,25.879,20.508,30.273,17.578,0
1540168292.967,32.227,24.414,13.672,39.062,41.504,0
1540168292.971,35.156,24.414,6.348,35.645,23.438,0
1540168292.975,36.621,23.438,3.906,25.391,-31.250,0
1540168292.979,35.645,22.949,9.766,27.832,-9.766,0
1540168292.983,37.598,29.785,2.930,36.621,44.922,0
1540168292.987,39.062,24.414,1.465,44.434,41.016,0
1540168292.991,36.133,17.090,21.484,23.438,48.828,0
1540168292.995,28.809,26.367,26.855,16.602,17.090,0
1540168292.998,33.203,24.902,17.090,35.156,32.227,0
1540168293.002,39.062,20.020,2.930,40.527,89.355,0
1540168293.006,38.574,23.438,7.324,24.902,39.551,0
1540168293.010,35.156,20.020,21.973,19.531,23.438,0
1540168293.014,40.527,16.602,19.531,26.855,56.152,0
1540168293.018,46.875,23.438,9.766,24.902,4.883,0
1540168293.022,48.828,27.344,2.441,27.344,60.059,0
1540168293.026,49.805,25.879,6.348,30.762,91.309,0
1540168293.030,45.898,27.832,5.371,32.227,27.832,0
1540168293.034,23.438,27.344,2.441,21.484,20.996,0
1540168293.038,22.949,28.320,14.160,18.066,27.832,0
1540168293.041,56.152,25.879,14.648,34.180,-7.324,0
1540168293.045,58.105,26.367,-0.977,38.574,29.785,0
1540168293.049,49.316,28.809,-7.324,30.273,56.152,0
1540168293.053,38.574,25.879,3.418,31.250,11.719,0
1540168293.057,41.504,22.949,14.648,29.297,-45.898,0
1540168293.061,37.598,22.949,17.578,26.855,-47.363,0
1540168293.065,30.273,25.391,13.184,26.855,13.184,0
1540168293.069,31.738,20.996,4.395,27.344,-0.977,0
1540168293.073,20.508,21.484,10.742,29.297,38.086,0
1540168293.077,1.465,24.414,6.836,24.414,92.285,0
1540168293.080,22.461,20.508,0.488,26.855,33.691,0
1540168293.084,34.180,19.531,-1.953,29.297,49.805,0
1540168293.088,19.531,20.508,0.488,36.133,61.523,0
1540168293.092,20.020,21.973,13.672,31.738,26.367,0
1540168293.096,30.762,19.043,13.184,29.785,-3.418,0
1540168293.100,22.461,19.043,8.789,28.809,-16.113,0
1540168293.104,16.113,25.391,9.766,10.254,15.625,0
1540168293.108,22.461,26.855,11.230,20.996,7.324,0
1540168293.112,15.137,23.438,17.090,37.598,4.395,0
1540168293.116,12.207,25.879,14.160,29.297,0.488,0
1540168293.120,17.090,26.367,8.301,21.484,39.551,0
1540168293.123,29.785,23.926,0.488,24.414,42.969,0
1540168293.127,28.320,20.508,-5.859,32.227,55.664,0
1540168293.131,23.438,16.602,-4.883,37.109,67.383,0
1540168293.135,25.879,20.020,-0.977,35.645,45.410,0
1540168293.139,25.879,24.414,3.418,29.297,14.160,0
1540168293.143,24.414,29.297,17.090,27.344,30.273,0
1540168293.147,6.348,24.902,27.344,31.250,75.684,0
1540168293.151,6.836,23.926,29.785,32.227,29.297,0
1540168293.155,22.949,26.367,19.043,27.344,25.391,0
1540168293.159,28.809,22.461,8.789,30.273,52.734,0
1540168293.163,33.691,20.020,8.301,30.273,16.113,0
1540168293.166,32.715,19.043,1.953,28.809,4.395,0
1540168293.170,30.273,20.020,0.000,23.438,-19.043,0
1540168293.174,31.738,23.926,5.371,28.320,-53.223,0
1540168293.178,31.250,31.738,11.230,38.574,-41.016,0
1540168293.182,30.762,33.203,7.812,37.598,53.711,0
1540168293.186,33.691,23.438,11.230,36.133,88.867,0
1540168293.190,33.691,26.367,7.324,28.320,40.527,0
1540168293.194,14.160,26.855,-2.930,21.484,5.371,1
1540168293.198,13.672,24.902,3.418,33.203,9.277,0
1540168293.202,24.902,25.879,10.742,33.203,15.137,0
1540168293.205,20.020,20.508,18.555,22.949,-14.648,0
1540168293.209,35.156,21.484,32.227,30.273,29.297,0
1540168293.213,33.691,28.320,24.414,33.203,62.012,0
1540168293.217,26.367,26.855,11.719,29.785,41.016,0
1540168293.221,30.762,21.973,14.648,29.785,56.641,0
1540168293.225,32.715,21.484,8.301,31.738,25.879,0
1540168293.229,38.086,28.809,-0.977,38.086,-5.859,0
1540168293.233,30.273,28.320,-1.465,29.785,22.461,0
1540168293.237,25.391,25.391,9.766,28.809,30.762,0
1540168293.241,30.273,29.785,18.066,31.250,40.527,0
1540168293.245,24.902,24.902,5.371,25.391,26.367,0
1540168293.248,22.949,21.973,5.859,27.832,27.832,0
1540168293.252,29.297,23.926,13.672,27.832,-13.672,0
1540168293.256,36.621,20.508,4.883,28.809,-9.277,0
1540168293.260,26.367,23.438,1.953,34.180,43.945,0
1540168293.264,29.785,28.320,11.719,32.227,63.965,0
1540168293.268,32.227,23.438,8.789,28.320,30.273,0
1540168293.272,29.785,20.508,1.953,28.320,-15.137,0
1540168293.276,34.668,26.855,-7.324,26.367,-3.906,0
1540168293.280,36.621,27.344,-7.812,24.902,-10.742,0
1540168293.284,28.320,24.414,1.953,26.367,-31.738,0
1540168293.288,26.855,20.996,6.348,21.484,43.457,0
1540168293.291,34.668,20.508,5.859,18.066,36.621,0
1540168293.295,30.762,26.855,0.977,23.926,21.973,0
1540168293.299,25.879,24.902,0.977,35.156,73.730,0
1540168293.303,20.508,21.484,8.301,35.156,2.930,0
1540168293.307,22.949,27.344,7.324,27.344,3.418,0
1540168293.311,26.367,27.832,10.254,27.344,89.355,0
1540168293.315,26.367,27.832,3.906,29.297,71.777,0
1540168293.319,27.344,27.344,-0.488,29.297,19.043,0
1540168293.323,21.484,21.973,4.883,27.344,34.180,0
1540168293.327,23.438,20.996,5.371,27.832,56.152,0
1540168293.330,22.461,21.484,9.277,17.090,35.156,0
1540168293.334,23.926,21.484,9.277,17.578,-4.395,0
1540168293.338,18.066,24.414,12.207,22.461,38.086,0
1540168293.342,13.184,29.785,7.324,15.137,40.039,0
1540168293.346,31.738,30.273,8.789,20.996,-11.230,0
1540168293.350,40.039,30.762,12.695,34.180,41.016,0
1540168293.354,47.363,28.320,7.812,35.156,45.410,0
1540168293.358,41.504,24.414,7.324,22.461,-2.441,0
1540168293.362,29.785,23.926,10.254,23.438,-10.742,0
1540168293.366,32.227,28.809,16.602,30.762,0.977,0
1540168293.370,42.969,34.180,20.508,28.809,47.852,0
1540168293.373,41.016,29.785,10.742,27.344,65.430,0
1540168293.377,31.738,23.926,14.648,29.297,52.734,0
1540168293.381,33.203,24.414,22.949,29.785,18.555,0
1540168293.385,24.414,28.320,15.625,31.250,-2.441,0
1540168293.389,38.086,25.391,11.719,39.062,10.742,0
1540168293.393,52.734,29.297,9.277,38.086,6.348,0
1540168293.397,45.898,34.668,12.207,41.016,30.273,0
1540168293.401,37.598,32.715,20.508,41.504,59.082,0
1540168293.405,34.668,30.273,20.508,37.598,9.277,0
1540168293.409,34.668,31.250,22.949,36.133,2.441,0
1540168293.413,27.832,29.785,25.391,26.855,84.961,0
1540168293.416,29.785,34.668,14.648,28.809,68.848,0
1540168293.420,27.832,39.551,11.230,36.621,20.508,0
1540168293.424,32.227,30.273,3.906,30.273,42.480,0
1540168293.428,27.832,26.367,-0.488,30.273,27.344,0
1540168293.432,22.949,24.902,16.602,32.227,73.730,0
1540168293.436,29.785,22.949,29.297,26.367,107.422,0
1540168293.440,28.320,21.973,21.484,28.320,48.340,0
1540168293.444,24.902,22.949,11.719,27.832,8.301,0
1540168293.448,19.043,25.879,20.508,25.391,-27.832,0
1540168293.452,22.461,26.367,25.391,21.973,21.973,0
1540168293.455,27.832,22.949,14.160,17.090,39.551,0
1540168293.459,25.391,31.738,14.648,27.832,28.320,0
1540168293.463,19.531,33.203,20.508,28.320,9.766,0
1540168293.467,30.762,26.367,8.789,25.391,1.953,0
1540168293.471,29.785,24.414,11.230,27.344,43.457,0
1540168293.475,26.855,24.902,20.020,25.879,24.902,0
1540168293.479,33.203,30.762,12.695,32.227,-50.781,0
1540168293.483,28.320,26.855,12.207,27.832,-29.785,0
1540168293.487,22.949,24.902,11.230,20.996,-28.809,0
1540168293.491,25.391,22.461,5.859,16.113,-7.812,0
1540168293.495,35.645,23.438,6.348,28.320,17.578,0
1540168293.498,27.832,26.855,6.836,34.668,-34.668,0
1540168293.502,20.996,24.414,17.090,20.996,20.996,0
1540168293.506,29.785,29.785,12.207,32.227,0.488,0
1540168293.510,30.273,30.762,-3.906,39.062,-3.906,0
1540168293.514,21.484,22.949,3.418,26.855,51.758,0
1540168293.518,15.625,23.438,13.184,18.555,33.203,0
1540168293.522,20.996,24.902,25.391,12.695,-7.324,0
1540168293.526,28.809,26.367,24.414,19.043,3.418,0
1540168293.530,25.391,27.832,10.254,25.391,33.691,0
1540168293.534,13.184,26.367,8.301,22.461,10.254,0
1540168293.538,18.066,22.949,13.184,26.367,-4.883,0
1540168293.541,23.438,20.508,20.020,16.602,-9.766,0
1540168293.545,29.785,27.832,29.297,17.578,12.207,0
1540168293.549,37.109,31.738,15.625,39.551,10.742,0
1540168293.553,26.367,26.367,10.254,40.527,54.199,0
1540168293.557,27.832,19.531,16.602,33.691,75.195,0
1540168293.561,26.367,19.043,17.090,31.250,89.355,0
1540168293.565,20.996,24.414,24.902,31.250,66.895,0
1540168293.569,20.508,24.902,27.832,28.809,9.766,0
1540168293.573,19.043,21.973,26.367,27.832,14.648,0
1540168293.577,14.160,20.020,17.578,29.785,10.742,0
1540168293.580,28.809,22.461,9.277,27.832,-10.742,0
1540168293.584,53.711,28.809,9.277,26.367,29.785,0
1540168293.588,62.012,30.762,17.090,19.043,58.105,0
1540168293.592,52.246,29.785,25.391,12.207,61.523,0
1540168293.596,53.711,32.227,20.996,18.066,17.578,0
1540168293.600,53.223,34.668,15.625,35.156,-7.324,0
1540168293.604,46.875,31.738,19.043,41.504,23.438,0
1540168293.608,38.574,27.344,18.555,38.086,89.355,0
1540168293.612,23.926,28.320,17.578,37.109,79.590,0
1540168293.616,23.926,23.438,20.508,35.645,6.836,0
1540168293.620,16.113,20.508,21.973,32.227,27.344,0
1540168293.623,10.254,25.879,17.578,32.227,45.410,0
1540168293.627,27.344,23.926,24.414,40.527,-2.441,0
1540168293.631,25.879,21.484,41.016,34.668,-11.230,0
1540168293.635,21.973,24.902,40.039,26.367,-11.719,0
1540168293.639,29.785,24.414,38.574,28.320,-31.250,0
1540168293.643,19.043,21.484,39.551,19.043,-42.480,0
1540168293.647,15.625,23.926,17.090,22.949,-3.906,0
1540168293.651,29.297,27.832,7.324,31.738,38.574,0
1540168293.655,42.480,25.391,11.719,24.414,19.531,0
1540168293.659,29.297,23.926,4.395,21.973,17.578,0
1540168293.663,24.414,26.855,3.906,24.414,51.758,0
1540168293.666,33.203,28.809,9.277,25.391,79.102,0
1540168293.670,35.156,31.738,26.367,21.484,103.027,0
1540168293.674,27.832,26.367,28.320,22.949,100.586,0
1540168293.678,13.184,18.066,23.926,20.508,7.324,0
1540168293.682,15.137,20.508,27.344,21.973,-32.227,0
1540168293.686,26.855,21.973,15.137,17.578,35.645,0
1540168293.690,26.367,21.973,16.113,17.090,24.414,0
1540168293.694,22.461,22.461,23.926,26.855,-9.766,0
1540168293.698,28.809,20.996,18.555,31.738,4.395,0
1540168293.702,31.250,21.484,11.230,25.879,-8.301,0
1540168293.705,25.391,20.996,16.602,19.043,-14.160,0
1540168293.709,15.137,21.973,29.297,19.043,-10.742,0
1540168293.713,27.832,25.391,24.414,32.227,38.574,0
1540168293.717,33.691,26.855,15.137,46.387,89.355,0
1540168293.721,37.598,27.832,8.301,36.621,20.508,0
1540168293.725,35.156,22.949,18.555,18.555,-49.805,0
1540168293.729,20.020,25.879,25.391,17.090,-3.418,0
1540168293.733,31.738,27.832,29.297,26.855,82.520,0
1540168293.737,38.574,22.461,35.156,23.438,104.980,0
1540168293.741,24.902,20.996,28.320,13.184,66.406,0
1540168293.745,8.789,22.949,17.578,6.348,-19.531,0
1540168293.748,13.184,22.461,18.066,9.277,5.371,0
1540168293.752,26.367,24.902,20.996,13.184,83.008,0
1540168293.756,12.695,24.902,21.973,-3.418,20.508,0
1540168293.760,3.418,20.508,25.391,3.906,-37.109,0
1540168293.764,6.836,20.996,21.973,13.672,52.734,1
1540168293.768,16.113,24.902,11.719,2.441,66.895,0
1540168293.772,16.602,21.484,17.578,18.555,40.039,0
1540168293.776,11.719,22.949,18.066,32.715,23.438,0
1540168293.780,24.414,28.809,7.324,4.395,9.277,0
1540168293.784,45.410,27.832,10.742,6.348,38.086,0
1540168293.788,45.410,27.832,17.090,19.531,34.180,0
1540168293.791,29.297,32.227,20.508,14.160,30.273,0
1540168293.795,26.367,30.273,16.602,17.578,53.223,0
1540168293.799,36.621,25.879,14.160,22.461,44.434,0
1540168293.803,28.320,23.926,15.137,35.156,12.207,0
1540168293.807,35.645,27.344,16.602,24.902,63.477,0
1540168293.811,32.227,31.738,9.766,21.484,69.824,0
1540168293.815,42.480,30.762,3.418,37.598,69.336,0
1540168293.819,46.875,33.203,10.742,29.297,51.270,0
1540168293.823,21.484,35.156,19.043,21.973,28.320,0
1540168293.827,29.297,31.738,20.020,23.438,76.172,0
1540168293.830,19.043,23.438,15.625,16.602,30.762,0
1540168293.834,12.695,29.297,16.113,22.461,61.523,0
1540168293.838,36.621,36.621,13.184,23.438,64.453,0
1540168293.842,40.039,30.273,20.020,16.113,-7.324,0
1540168293.846,20.996,33.203,26.855,12.695,43.945,0
1540168293.850,9.766,33.691,19.043,27.344,48.340,0
1540168293.854,30.273,32.715,13.672,48.828,36.133,0
1540168293.858,36.621,33.203,17.090,35.156,83.984,0
1540168293.862,27.344,29.297,28.809,6.348,79.590,0
1540168293.866,11.719,32.227,36.133,8.301,7.324,0
1540168293.870,0.488,29.785,30.762,9.766,16.602,0
1540168293.873,21.973,23.438,19.531,11.719,28.809,0
1540168293.877,38.086,25.879,19.531,31.738,46.875,0
1540168293.881,23.438,31.738,19.531,34.668,98.633,0
1540168293.885,4.395,26.367,20.020,14.648,52.246,0
1540168293.889,6.836,24.902,18.066,8.789,79.102,0
1540168293.893,1.953,28.809,22.461,27.344,41.016,0
1540168293.897,8.301,26.855,33.203,42.480,-3.418,0
1540168293.901,28.320,26.367,28.809,44.434,20.996,0
1540168293.905,38.086,30.273,25.879,34.180,35.156,0
1540168293.909,33.203,30.273,32.227,27.832,28.809,0
1540168293.913,7.324,27.832,33.203,30.273,25.391,0
1540168293.916,4.395,26.367,27.832,38.574,16.113,0
1540168293.920,14.648,24.902,23.438,30.762,0.488,0
1540168293.924,20.508,24.902,21.973,25.879,30.273,0
1540168293.928,22.949,24.414,24.414,40.527,41.016,0
1540168293.932,24.414,24.902,23.438,40.527,23.926,0
1540168293.936,35.156,25.879,17.090,40.527,40.039,0
1540168293.940,28.809,29.785,20.996,48.828,81.055,0
1540168293.944,20.508,31.250,24.902,27.344,29.785,0
1540168293.948,36.621,27.832,8.301,37.598,-2.930,0
1540168293.952,38.574,27.832,10.254,49.805,36.621,0
1540168293.955,30.273,29.785,21.973,39.551,18.555,0
1540168293.959,43.457,26.855,19.531,45.898,7.324,0
1540168293.963,55.176,25.879,24.414,41.992,43.945,0
1540168293.967,38.574,26.855,17.578,37.109,78.125,0
1540168293.971,35.156,31.250,13.672,29.785,73.242,0
1540168293.975,36.621,34.180,12.207,23.926,27.344,0
1540168293.979,38.574,31.738,10.254,32.715,35.156,0
1540168293.983,52.246,35.156,16.113,50.781,63.965,0
1540168293.987,47.852,30.273,20.020,50.781,16.602,0
1540168293.991,44.434,30.273,18.555,26.855,27.344,0
1540168293.995,37.598,29.297,18.066,29.297,81.543,0
1540168293.998,37.109,25.879,19.531,45.410,42.480,0
1540168294.002,54.199,28.809,14.160,44.434,4.395,0
1540168294.006,46.387,27.832,9.766,41.504,-6.836,0
1540168294.010,33.203,25.391,7.812,41.016,10.742,0
1540168294.014,34.668,25.391,9.277,35.645,-13.672,0
1540168294.018,29.297,24.414,8.301,31.738,-8.789,0
1540168294.022,41.504,26.367,4.883,36.133,27.344,0
1540168294.026,59.570,28.809,8.789,39.062,-25.391,0
1540168294.030,39.062,22.461,12.695,26.367,-32.227,0
1540168294.034,31.250,20.996,7.812,26.855,15.625,0
1540168294.038,35.156,18.066,13.184,48.340,41.504,0
1540168294.041,31.738,16.113,24.414,45.410,51.758,0
1540168294.045,41.992,23.438,14.648,26.855,9.766,0
1540168294.049,29.297,22.461,13.184,30.273,16.602,0
1540168294.053,22.949,17.578,17.578,38.086,53.223,0
1540168294.057,48.828,20.020,9.766,32.715,1.953,0
1540168294.061,40.039,22.949,13.184,8.789,21.973,0
1540168294.065,20.020,18.555,21.973,1.465,25.879,0
1540168294.069,40.527,18.066,20.020,32.227,44.434,0
1540168294.073,47.363,22.949,15.137,30.762,43.457,0
1540168294.077,36.621,23.926,15.625,24.902,46.387,0
1540168294.080,5.371,21.973,11.719,23.926,119.141,0
1540168294.084,4.883,21.484,11.230,11.719,34.668,0
1540168294.088,37.598,19.531,20.508,22.461,-44.922,0
1540168294.092,36.621,20.508,24.902,30.762,59.570,0
1540168294.096,30.273,21.973,21.973,41.504,58.105,0
1540168294.100,36.133,22.949,9.766,31.738,20.508,0
1540168294.104,32.715,27.344,18.066,4.883,16.602,0
1540168294.108,23.926,31.250,21.973,-0.488,-13.672,0
1540168294.112,35.156,30.273,17.090,24.414,-9.766,0
1540168294.116,38.086,24.902,31.738,37.598,-5.859,0
1540168294.120,4.883,21.484,32.227,17.578,73.730,0
1540168294.123,6.348,19.531,23.926,12.207,41.992,0
1540168294.127,32.227,22.949,21.973,23.926,-42.969,0
1540168294.131,32.227,24.902,15.137,29.297,-3.906,0
1540168294.135,12.695,27.832,14.160,9.277,35.156,0
1540168294.139,-2.930,25.391,24.902,-1.953,38.086,0
1540168294.143,11.719,21.484,21.484,12.695,39.062,0
1540168294.147,19.531,25.879,15.625,28.809,38.086,0
1540168294.151,20.996,24.902,6.836,43.457,33.203,0
1540168294.155,23.926,22.949,7.812,24.414,35.645,0
1540168294.159,21.484,23.926,23.926,1.953,70.312,0
1540168294.163,12.695,27.832,33.203,14.160,26.367,0
1540168294.166,14.648,32.227,21.973,5.859,-21.484,0
1540168294.170,24.902,31.250,15.137,30.273,14.160,0
1540168294.174,33.203,31.738,22.461,56.152,21.484,0
1540168294.178,21.973,32.227,19.043,29.297,-15.137,0
1540168294.182,-2.441,27.832,17.090,18.555,-17.578,0
1540168294.186,35.645,31.738,16.113,27.344,-11.719,0
1540168294.190,56.641,40.039,12.695,30.273,-13.672,0
1540168294.194,23.438,38.086,6.348,45.898,-9.277,0
1540168294.198,22.461,33.691,16.113,43.945,56.152,0
1540168294.202,19.043,29.297,28.809,16.113,36.621,0
1540168294.205,24.414,28.320,25.879,16.113,0.977,0
1540168294.209,44.434,35.645,28.320,35.645,-11.719,0
1540168294.213,34.668,44.434,22.461,33.203,-24.414,0
1540168294.217,30.273,40.527,20.508,28.809,22.461,0
1540168294.221,40.039,28.320,25.879,37.109,28.320,0
1540168294.225,39.551,26.855,26.367,39.062,16.602,0
1540168294.229,18.555,26.855,21.484,33.203,84.473,0
1540168294.233,11.719,29.297,19.043,30.762,62.988,0
1540168294.237,34.180,28.809,20.508,25.879,46.875,0
1540168294.241,44.922,22.949,21.484,35.156,80.566,0
1540168294.245,24.414,25.391,23.926,41.504,46.875,0
1540168294.248,21.973,32.715,20.996,28.320,4.395,0
1540168294.252,26.855,23.438,15.625,14.160,26.367,0
1540168294.256,30.273,20.508,11.719,22.949,81.543,0
1540168294.260,23.926,27.344,19.531,41.504,43.945,0
1540168294.264,15.137,21.484,33.691,49.316,26.855,0
1540168294.268,25.391,21.484,23.926,31.738,41.016,0
1540168294.272,18.066,26.855,17.578,27.832,6.836,0
1540168294.276,6.836,24.902,23.926,28.320,-23.438,0
1540168294.280,16.602,17.090,25.879,23.438,31.738,0
1540168294.284,12.207,13.672,28.809,34.180,49.316,0
1540168294.288,-10.742,20.508,31.250,28.809,22.949,0
1540168294.291,13.672,24.902,27.344,36.621,89.844,0
1540168294.295,40.527,23.438,23.926,42.480,26.367,0
1540168294.299,28.809,20.020,25.879,29.785,-49.316,0
1540168294.303,31.738,20.996,21.973,29.785,-2.930,0
1540168294.307,17.090,19.531,23.438,29.785,-11.719,0
1540168294.311,0.488,18.555,20.020,13.184,5.859,0
1540168294.315,21.973,22.949,19.531,23.438,53.711,0
1540168294.319,28.320,23.438,20.020,36.133,38.086,0
1540168294.323,25.391,24.902,17.090,28.320,-11.230,0
1540168294.327,21.484,25.879,23.926,27.832,37.109,0
1540168294.330,29.785,27.832,23.438,37.598,80.566,0
1540168294.334,25.879,25.391,21.973,20.020,62.988,0
1540168294.338,17.090,24.414,23.438,14.160,14.160,0
1540168294.342,20.020,26.855,21.484,31.250,-14.160,0
1540168294.346,15.625,24.902,21.484,26.367,-17.090,0
1540168294.350,25.391,26.367,17.090,15.625,-49.316,0
1540168294.354,26.367,25.391,16.113,5.859,2.930,0
1540168294.358,29.297,23.438,22.949,0.488,-3.418,0
1540168294.362,41.504,26.855,16.113,24.414,-5.371,0
1540168294.366,40.527,25.879,14.160,38.086,3.906,0
1540168294.370,51.758,25.391,15.137,27.344,-44.922,0
1540168294.373,57.617,31.250,8.301,18.555,-25.879,0
1540168294.377,40.039,32.715,11.719,18.555,19.531,0
1540168294.381,29.297,28.320,23.438,39.062,17.578,0
1540168294.385,27.344,24.414,21.484,47.363,41.016,0
1540168294.389,27.344,24.902,19.531,44.922,44.922,0
1540168294.393,21.973,25.391,23.438,37.598,6.348,0
1540168294.397,15.625,18.066,24.902,27.832,-2.441,0
1540168294.401,19.531,20.996,31.738,35.645,9.277,0
1540168294.405,30.762,35.156,19.043,38.574,41.504,0
1540168294.409,31.250,35.645,15.137,50.293,94.238,0
1540168294.413,20.020,29.297,40.527,49.805,94.238,0
1540168294.416,7.324,27.832,41.504,29.297,44.434,0
1540168294.420,17.578,29.297,32.715,21.484,39.551,0
1540168294.424,18.555,25.391,30.762,20.508,51.758,0
1540168294.428,10.254,26.855,22.949,35.645,34.180,0
1540168294.432,14.160,29.297,20.508,37.109,44.434,0
1540168294.436,18.555,30.273,8.789,18.555,89.844,0
1540168294.440,23.438,31.738,22.949,17.090,71.289,0
1540168294.444,16.113,27.344,30.273,25.391,-8.301,0
1540168294.448,18.066,20.020,23.926,32.227,-8.789,0
1540168294.452,33.203,20.996,28.809,32.227,50.293,0
1540168294.455,38.086,29.785,24.902,26.855,83.008,0
1540168294.459,35.645,38.086,22.461,22.949,34.668,0
1540168294.463,27.344,38.086,28.809,23.926,12.207,0
1540168294.467,35.156,37.109,17.090,39.551,61.523,0
1540168294.471,43.945,35.156,5.371,41.016,16.113,0
1540168294.475,23.926,25.879,21.973,20.996,6.348,0
1540168294.479,11.719,27.832,35.156,20.508,-27.832,0
1540168294.483,9.277,26.855,34.668,15.137,-5.371,1
1540168294.487,19.531,24.414,26.855,10.742,49.805,0
1540168294.491,41.504,33.691,19.043,31.250,0.977,0
1540168294.495,34.180,29.785,19.531,33.203,21.973,0
1540168294.498,25.391,26.367,15.625,23.926,83.496,0
1540168294.502,23.926,31.738,20.508,20.020,58.594,0
1540168294.506,28.809,31.250,33.203,23.438,29.297,0
1540168294.510,33.203,28.809,36.133,31.738,54.199,0
1540168294.514,33.203,28.320,24.902,32.715,61.035,0
1540168294.518,39.062,26.367,14.648,28.320,56.152,0
1540168294.522,43.945,27.832,25.879,22.949,61.523,0
1540168294.526,40.527,30.273,28.320,19.531,28.320,0
1540168294.530,35.156,31.738,20.020,24.902,15.625,0
1540168294.534,35.156,35.645,12.695,26.367,-15.137,0
1540168294.538,40.039,31.250,12.207,24.414,2.441,0
1540168294.541,47.852,31.250,18.555,27.832,34.668,0
1540168294.545,45.898,29.785,19.043,23.926,37.598,0
1540168294.549,37.598,24.902,27.344,18.555,64.453,0
1540168294.553,44.922,29.297,20.996,25.879,31.250,0
1540168294.557,41.016,26.367,21.484,23.438,74.219,0
1540168294.561,16.113,16.602,23.438,21.973,75.195,0
1540168294.565,24.902,20.996,14.160,31.738,33.203,0
1540168294.569,32.715,26.855,21.973,26.367,86.914,0
1540168294.573,27.832,25.879,30.762,13.184,80.566,0
1540168294.577,38.086,25.879,30.273,15.137,53.711,0
1540168294.580,40.527,34.180,21.973,25.391,77.148,0
1540168294.584,37.598,35.645,13.672,28.320,63.477,0
1540168294.588,43.457,32.715,20.508,24.414,-4.395,0
1540168294.592,40.527,30.762,23.926,21.484,0.488,0
1540168294.596,38.086,30.762,14.160,26.367,34.668,0
1540168294.600,46.387,33.691,13.184,36.133,40.527,0
1540168294.604,48.828,34.180,20.996,30.762,82.520,0
1540168294.608,38.574,32.227,20.508,17.090,38.574,0
1540168294.612,28.320,28.809,15.625,17.090,13.672,0
1540168294.616,33.203,32.227,11.719,31.738,0.000,0
1540168294.620,43.457,33.691,20.996,30.762,-14.648,0
1540168294.623,42.480,30.273,24.414,23.438,13.184,0
1540168294.627,45.898,32.227,18.555,23.926,19.531,0
1540168294.631,45.410,31.738,19.531,25.391,16.602,0
1540168294.635,37.598,28.320,22.461,22.461,59.570,0
1540168294.639,39.062,25.879,19.531,20.020,20.020,0
1540168294.643,37.598,23.926,11.230,23.926,-32.715,0
1540168294.647,29.297,25.391,16.602,21.484,1.465,0
1540168294.651,26.367,28.809,26.367,27.344,33.691,0
1540168294.655,32.715,30.273,22.949,29.297,80.566,0
1540168294.659,40.039,28.320,18.555,28.809,60.059,0
1540168294.663,39.062,27.832,9.277,40.527,-9.766,0
1540168294.666,25.391,25.879,6.836,35.645,-11.719,0
1540168294.670,30.762,26.367,18.066,35.645,64.941,0
1540168294.674,39.062,29.785,24.902,41.504,64.941,0
1540168294.678,30.273,30.273,15.137,44.922,50.781,0
1540168294.682,38.574,34.180,15.137,50.293,54.688,0
1540168294.686,40.039,30.762,21.484,41.992,15.137,0
1540168294.690,33.691,25.879,24.902,33.203,29.297,0
1540168294.694,36.133,23.926,27.832,39.551,2.930,0
1540168294.698,39.551,24.414,26.367,35.645,52.734,0
1540168294.702,28.809,29.297,33.691,32.227,47.363,0
1540168294.705,32.227,29.785,33.691,31.738,-21.973,0
1540168294.709,35.156,29.785,24.414,32.715,-5.859,0
1540168294.713,33.203,30.762,20.508,39.062,-36.621,0
1540168294.717,35.645,29.297,27.344,33.203,-33.691,0
1540168294.721,21.484,26.855,26.855,22.461,9.277,0
1540168294.725,22.949,26.367,20.508,17.090,61.035,0
1540168294.729,27.832,29.297,18.066,22.949,47.852,0
1540168294.733,24.414,29.785,22.461,23.926,50.781,0
1540168294.737,29.297,27.344,16.602,18.066,69.336,0
1540168294.741,27.832,25.391,11.230,15.137,5.371,0
1540168294.745,13.184,25.391,24.414,18.555,37.598,0
1540168294.748,16.113,26.855,36.621,21.484,36.621,0
1540168294.752,24.414,24.902,28.320,19.531,-9.766,0
1540168294.756,26.367,20.996,22.949,20.996,5.371,0
1540168294.760,36.133,25.391,27.344,24.902,7.812,0
1540168294.764,27.344,27.344,18.555,25.391,-18.066,0
1540168294.768,17.090,20.508,0.488,23.438,-45.898,0
1540168294.772,26.855,23.438,7.812,21.484,8.789,0
1540168294.776,27.832,26.855,28.320,23.926,19.043,0
1540168294.780,20.996,23.926,29.785,23.926,-5.371,0
1540168294.784,21.973,24.414,33.203,27.832,-1.953,0
1540168294.788,22.949,20.020,34.180,28.320,22.949,0
1540168294.791,24.902,20.508,31.250,18.555,30.273,0
1540168294.795,18.066,22.949,29.297,21.484,9.766,0
1540168294.799,16.113,24.414,25.879,36.133,-22.949,0
1540168294.803,29.785,27.344,17.090,38.086,-66.406,0
1540168294.807,35.645,29.785,9.277,35.156,-20.996,0
1540168294.811,31.738,29.297,10.742,40.039,25.391,0
1540168294.815,24.414,25.879,24.414,38.574,30.273,0
1540168294.819,21.973,25.391,32.227,29.297,3.906,0
1540168294.823,27.344,29.297,22.461,23.438,-22.949,0
1540168294.827,27.832,31.250,23.926,23.438,101.562,0
1540168294.830,30.762,29.297,29.785,31.738,79.590,0
1540168294.834,30.762,32.227,25.879,29.297,32.715,0
1540168294.838,25.879,33.203,26.367,20.020,107.422,0
1540168294.842,23.438,30.762,22.461,18.066,87.891,0
1540168294.846,20.508,29.297,14.160,28.809,41.992,0
1540168294.850,19.531,30.273,12.695,29.785,41.504,0
1540168294.854,24.414,27.832,12.695,20.996,4.883,0
1540168294.858,26.855,23.926,15.137,18.066,-11.719,0
1540168294.862,22.949,23.438,8.789,15.137,25.879,0
1540168294.866,15.625,25.879,5.859,25.391,70.801,0
1540168294.870,22.949,26.367,17.578,27.832,84.473,0
1540168294.873,33.203,26.367,24.902,21.484,85.449,0
1540168294.877,31.738,25.879,19.531,27.832,103.516,0
1540168294.881,32.227,23.438,20.508,31.738,107.422,0
1540168294.885,29.785,25.879,21.973,28.320,64.453,0
1540168294.889,34.180,28.809,14.160,27.832,40.527,0
1540168294.893,33.691,29.297,20.508,39.062,37.109,0
1540168294.897,36.133,27.832,21.973,40.039,30.762,0
1540168294.901,43.945,23.438,23.438,20.996,59.570,0
1540168294.905,34.180,24.902,28.809,21.973,24.902,0
1540168294.909,31.738,23.438,21.484,26.855,-47.363,0
1540168294.913,27.832,18.555,14.648,21.973,-30.273,0
1540168294.916,18.066,18.555,9.766,21.973,-19.043,0
1540168294.920,19.531,21.484,13.184,21.484,4.883,0
1540168294.924,25.879,15.625,19.043,17.578,73.242,0
1540168294.928,14.648,20.020,14.648,16.602,33.203,0
1540168294.932,14.648,24.414,14.160,16.113,51.270,0
1540168294.936,26.855,16.602,23.926,22.949,80.566,0
1540168294.940,29.785,24.902,33.203,25.879,50.293,0
1540168294.944,19.043,30.762,26.855,18.066,6.348,0
1540168294.948,16.113,26.855,21.484,17.090,-22.949,0
1540168294.952,22.949,26.855,16.113,27.344,-14.648,0
1540168294.955,32.227,26.855,-5.371,25.879,24.414,0
1540168294.959,29.297,28.320,4.883,20.508,22.949,0
1540168294.963,26.855,22.949,24.414,29.297,9.277,0
1540168294.967,30.762,26.367,15.625,27.832,53.223,0
1540168294.971,22.461,32.227,21.973,17.090,25.879,0
1540168294.975,20.508,25.879,26.367,5.859,7.812,0
1540168294.979,26.367,26.855,24.902,12.695,4.883,0
1540168294.983,25.879,29.785,36.621,19.043,5.371,0
1540168294.987,20.508,28.320,28.320,14.648,63.477,0
1540168294.991,23.438,30.273,13.672,14.160,67.871,0
1540168294.995,18.555,29.297,24.902,17.090,23.438,0
1540168294.998,14.648,23.926,33.691,14.648,56.641,0
1540168295.002,1.465,24.902,27.344,11.719,30.762,0
1540168295.006,1.465,27.344,19.043,14.160,-6.348,0
1540168295.010,22.949,28.320,13.184,21.973,59.570,0
1540168295.014,38.086,25.391,9.766,28.320,19.043,0
1540168295.018,34.668,30.762,17.578,29.785,6.836,0
1540168295.022,20.020,25.879,19.531,29.297,52.734,0
1540168295.026,25.391,30.273,8.789,31.738,1.465,0
1540168295.030,31.738,39.551,-2.930,33.203,16.113,0
1540168295.034,7.812,24.902,26.855,24.902,45.898,0
1540168295.038,-7.812,3.906,35.645,19.043,18.555,0
1540168295.041,40.039,9.766,31.738,32.227,46.387,0
1540168295.045,57.617,39.551,12.207,46.387,25.391,0
1540168295.049,41.016,47.852,13.672,38.574,40.039,0
1540168295.053,27.832,19.531,58.105,11.719,60.547,0
1540168295.057,20.020,15.137,68.848,-4.883,-14.160,0
1540168295.061,13.672,33.203,52.246,10.742,11.719,0
1540168295.065,10.254,26.855,20.508,17.578,83.008,2
1540168295.069,12.695,28.320,7.324,18.066,55.176,0
1540168295.073,14.160,34.180,47.363,15.137,9.766,0
1540168295.077,19.043,27.832,62.500,20.508,-17.090,0
1540168295.080,24.414,25.879,31.738,27.344,-1.465,0
1540168295.084,24.414,31.738,19.531,23.438,32.715,0
1540168295.088,31.738,30.273,17.090,18.555,22.949,0
1540168295.092,40.527,34.180,5.859,19.043,30.762,0
1540168295.096,30.273,34.668,-1.953,23.926,29.297,0
1540168295.100,31.738,29.297,2.441,28.809,-10.254,0
1540168295.104,50.293,24.414,9.766,27.344,9.766,0
1540168295.108,57.617,24.414,9.277,21.973,-12.207,0
1540168295.112,57.129,25.391,7.324,19.531,-15.137,0
1540168295.116,58.594,23.438,13.184,25.391,43.457,0
1540168295.120,53.223,24.414,15.137,27.832,26.367,0
1540168295.123,46.387,23.926,8.789,27.832,-13.672,0
1540168295.127,38.574,20.996,-0.488,27.344,1.465,0
1540168295.131,34.180,18.555,10.742,28.320,20.996,0
1540168295.135,30.273,16.602,22.461,27.832,69.824,0
1540168295.139,34.668,19.531,13.184,31.738,82.520,0
1540168295.143,38.086,20.020,16.602,35.645,23.926,0
1540168295.147,30.762,19.531,22.949,32.227,28.320,0
1540168295.151,20.020,20.996,22.461,28.320,21.973,0
1540168295.155,26.367,23.438,18.555,25.879,4.395,0
1540168295.159,29.297,23.926,13.184,32.715,0.488,0
1540168295.163,26.855,21.484,12.695,38.086,-28.809,0
1540168295.166,33.203,20.996,18.066,42.969,14.160,0
1540168295.170,37.598,18.555,24.902,41.992,22.461,0
1540168295.174,32.227,16.602,25.879,31.738,11.719,0
1540168295.178,24.414,16.602,25.391,26.855,92.285,0
1540168295.182,17.090,17.090,21.973,26.367,83.496,0
1540168295.186,17.090,18.555,15.625,28.809,33.691,0
1540168295.190,27.832,18.066,13.184,27.344,27.344,0
1540168295.194,27.832,18.066,24.414,29.297,36.621,0
1540168295.198,19.043,21.973,32.715,35.156,-20.996,0
1540168295.202,26.367,22.461,18.066,39.062,1.465,0
1540168295.205,37.598,19.531,15.137,36.621,120.117,0
1540168295.209,34.668,20.996,26.855,33.203,78.125,0
1540168295.213,22.461,21.484,27.344,31.250,36.133,0
1540168295.217,14.160,20.508,20.996,30.762,42.480,0
1540168295.221,21.484,21.484,17.578,32.227,49.316,0
1540168295.225,31.738,24.902,15.137,33.203,13.184,0
1540168295.229,27.832,24.414,13.672,34.180,-2.930,0
1540168295.233,23.438,19.531,17.090,29.297,41.016,0
1540168295.237,29.785,21.484,25.391,29.785,25.391,0
1540168295.241,30.273,21.484,25.879,30.762,-2.441,0
1540168295.245,24.414,20.996,23.926,30.762,29.785,0
1540168295.248,20.996,22.461,23.438,31.250,27.832,0
1540168295.252,24.414,17.090,20.996,28.809,-10.742,0
1540168295.256,32.227,17.090,19.043,26.367,30.273,0
1540168295.260,36.621,18.066,18.066,26.855,69.336,0
1540168295.264,36.621,17.090,15.137,32.227,60.547,0
1540168295.268,35.645,19.531,18.555,32.715,16.113,0
1540168295.272,40.039,25.391,25.879,32.715,7.812,0
1540168295.276,35.645,26.855,18.066,34.180,62.012,0
1540168295.280,21.973,22.461,7.812,26.855,53.223,0
1540168295.284,26.367,21.973,12.695,22.949,-14.648,0
1540168295.288,35.645,23.438,19.043,21.484,-7.324,0
1540168295.291,37.598,21.973,11.719,24.902,37.109,0
1540168295.295,42.969,26.367,10.742,34.668,28.809,0
1540168295.299,39.062,32.715,6.836,28.320,63.477,0
1540168295.303,29.297,28.320,2.441,20.996,63.965,0
1540168295.307,32.715,22.461,21.973,20.508,-4.883,0
1540168295.311,37.598,23.438,30.762,25.879,6.348,0
1540168295.315,37.109,27.344,21.484,33.203,20.996,0
1540168295.319,30.273,23.926,17.090,28.809,-17.578,0
1540168295.323,34.668,27.832,21.484,22.949,21.973,0
1540168295.327,40.039,30.273,17.090,24.414,20.996,0
1540168295.330,34.668,23.438,9.766,18.066,-14.648,0
1540168295.334,25.391,22.949,21.484,15.625,3.906,0
1540168295.338,29.785,23.926,21.973,16.113,18.066,0
1540168295.342,43.945,27.344,18.555,22.461,24.902,0
1540168295.346,39.062,27.832,15.137,25.391,0.000,0
1540168295.350,28.809,25.391,7.812,20.020,29.785,0
1540168295.354,33.203,22.461,12.207,20.996,23.926,0
1540168295.358,39.551,22.949,17.578,25.391,31.250,0
1540168295.362,36.133,29.785,15.137,34.668,41.016,0
1540168295.366,34.180,25.879,18.066,37.109,-23.438,0
1540168295.370,35.645,19.531,20.508,29.297,43.945,0
1540168295.373,41.992,24.902,27.832,24.414,42.969,0
1540168295.377,33.691,25.879,33.203,19.043,14.648,0
1540168295.381,22.461,20.508,33.203,20.508,30.762,0
1540168295.385,21.973,16.602,23.926,27.344,23.438,0
1540168295.389,16.602,18.066,21.484,19.043,62.500,0
1540168295.393,11.719,20.508,14.648,17.578,9.277,0
1540168295.397,15.137,15.625,7.324,25.391,40.527,0
1540168295.401,15.625,12.695,11.230,26.855,82.520,0
1540168295.405,15.137,20.020,11.230,25.391,57.617,0
1540168295.409,21.484,22.949,13.672,28.320,62.500,0
1540168295.413,13.184,20.996,25.391,32.227,15.625,0
1540168295.416,19.531,25.391,29.297,31.250,-6.836,0
1540168295.420,26.367,27.344,17.090,25.879,102.051,0
1540168295.424,15.625,23.926,12.207,19.531,104.980,0
1540168295.428,19.043,24.902,20.996,20.996,36.133,0
1540168295.432,18.066,25.879,37.109,21.973,0.977,0
1540168295.436,11.719,19.531,34.668,22.461,4.883,0
1540168295.440,20.508,20.020,22.461,28.320,17.578,0
1540168295.444,21.973,28.809,22.949,27.832,17.090,0
1540168295.448,24.414,30.273,21.484,25.391,25.879,0
1540168295.452,27.344,25.391,13.184,28.809,27.832,0
1540168295.455,19.043,17.578,17.090,29.785,33.691,0
1540168295.459,23.438,26.855,26.367,36.621,14.160,0
1540168295.463,29.297,39.062,2.441,38.574,36.133,0
1540168295.467,30.762,37.598,9.277,33.691,54.688,0
1540168295.471,24.902,30.762,44.434,25.391,65.918,0
1540168295.475,17.090,23.926,52.246,17.578,93.262,0
1540168295.479,17.578,28.320,48.828,24.414,76.172,0
1540168295.483,19.043,28.809,35.156,23.926,30.273,0
1540168295.487,20.020,25.879,24.414,18.555,-18.555,0
1540168295.491,25.879,28.809,25.391,25.391,26.367,0
1540168295.495,31.738,32.715,18.555,28.809,75.195,0
1540168295.498,31.250,31.250,12.207,29.785,64.941,0
1540168295.502,27.344,29.297,20.020,31.738,5.859,0
1540168295.506,34.180,27.344,18.555,24.414,-55.664,0
1540168295.510,32.715,24.902,7.812,19.531,-17.090,0
1540168295.514,22.949,26.367,27.344,25.391,24.902,0
1540168295.518,25.879,30.273,33.203,29.297,27.344,0
1540168295.522,35.156,30.273,21.484,26.855,-2.930,0
1540168295.526,38.574,27.832,22.461,22.949,-23.926,0
1540168295.530,23.438,24.902,32.227,27.344,8.789,0
1540168295.534,16.113,23.926,36.133,31.738,86.914,0
1540168295.538,21.973,23.438,25.391,34.668,104.492,0
1540168295.541,26.367,24.902,12.695,32.227,86.426,0
1540168295.545,25.879,26.367,17.578,27.832,28.320,0
1540168295.549,23.926,24.414,29.785,24.414,-15.625,0
1540168295.553,25.879,21.484,19.043,28.809,45.410,0
1540168295.557,25.391,21.973,16.113,31.250,49.316,0
1540168295.561,28.320,26.367,26.855,28.809,7.812,0
1540168295.565,25.879,29.297,34.668,25.879,41.504,0
1540168295.569,19.531,27.344,25.391,21.973,77.637,0
1540168295.573,23.438,27.832,25.391,21.484,35.156,0
1540168295.577,19.531,29.785,34.668,21.484,2.930,0
1540168295.580,20.508,27.832,34.180,22.461,23.926,0
1540168295.584,23.926,33.203,28.320,29.297,48.828,0
1540168295.588,20.996,32.227,27.344,30.762,15.625,0
1540168295.592,23.926,26.855,27.344,24.414,8.789,0
1540168295.596,20.508,26.367,21.973,25.391,10.254,0
1540168295.600,19.531,24.414,27.832,27.832,63.965,0
1540168295.604,25.391,26.855,28.809,23.438,62.500,0
1540168295.608,27.832,30.762,22.461,20.508,-19.043,0
1540168295.612,25.879,29.785,16.113,26.855,16.602,0
1540168295.616,27.832,26.855,11.719,34.180,23.438,0
1540168295.620,27.832,27.832,17.090,36.621,-6.348,0
1540168295.623,27.832,28.320,19.043,27.344,-47.363,0
1540168295.627,19.043,25.879,15.625,17.578,-31.738,0
1540168295.631,11.719,30.273,34.180,23.438,53.711,0
1540168295.635,22.461,34.668,41.016,24.414,31.738,0
1540168295.639,33.203,29.785,20.508,15.137,24.902,0
1540168295.643,25.879,29.785,16.602,16.602,39.062,0
1540168295.647,19.531,25.879,18.066,23.438,31.250,0
1540168295.651,23.438,23.438,14.648,23.926,10.742,0
1540168295.655,26.855,22.949,21.973,23.926,28.809,0
1540168295.659,32.227,19.531,28.320,20.996,38.574,0
1540168295.663,38.574,23.926,24.902,20.996,-9.277,0
1540168295.666,27.832,29.297,23.926,26.855,52.734,0
1540168295.670,22.949,27.832,19.043,29.297,54.199,0
1540168295.674,27.832,28.809,15.137,23.438,6.348,0
1540168295.678,23.438,31.738,20.020,26.855,-6.836,0
1540168295.682,24.902,24.414,20.508,37.598,15.137,0
1540168295.686,27.344,22.461,12.207,39.062,25.879,0
1540168295.690,38.574,26.367,11.719,31.738,43.457,0
1540168295.694,46.387,28.320,24.902,25.391,40.039,0
1540168295.698,41.016,29.297,21.973,22.461,83.496,0
1540168295.702,34.180,28.809,17.578,20.996,37.109,0
1540168295.705,35.645,28.809,28.809,19.043,-1.465,0
1540168295.709,38.086,26.367,26.367,15.625,16.113,1
1540168295.713,25.391,22.949,13.672,20.508,-5.859,0
1540168295.717,32.227,23.438,22.461,30.762,8.789,0
1540168295.721,44.434,22.949,35.645,27.344,15.625,0
1540168295.725,31.250,27.344,15.625,24.414,37.109,0
1540168295.729,19.531,28.809,15.137,32.715,36.621,0
1540168295.733,19.531,21.484,39.551,32.227,37.598,0
1540168295.737,20.508,19.043,36.133,25.391,64.453,0
1540168295.741,20.020,20.508,39.551,16.113,54.688,0
1540168295.745,20.020,27.344,40.039,14.648,66.406,0
1540168295.748,18.066,23.438,36.133,21.973,82.520,0
1540168295.752,18.066,25.391,30.762,24.902,76.660,0
1540168295.756,24.902,29.297,29.785,23.926,60.059,0
1540168295.760,29.785,27.344,30.273,32.715,17.090,0
1540168295.764,33.691,29.785,20.020,35.645,31.738,0
1540168295.768,41.016,30.762,13.184,35.156,49.805,0
1540168295.772,35.645,24.902,17.578,25.879,49.805,0
1540168295.776,37.598,18.066,24.902,27.832,71.289,0
1540168295.780,39.062,23.926,35.156,43.945,49.805,0
1540168295.784,26.855,26.367,28.320,27.832,28.809,0
1540168295.788,22.949,22.461,22.949,10.742,29.785,0
1540168295.791,25.879,21.973,28.809,13.184,-6.836,0
1540168295.795,22.949,15.625,30.762,16.113,27.344,0
1540168295.799,18.066,20.996,27.344,21.973,75.195,0
1540168295.803,26.367,25.391,20.996,23.926,34.668,0
1540168295.807,37.598,20.020,18.555,21.973,29.297,0
1540168295.811,36.133,25.391,20.020,26.855,12.695,0
1540168295.815,33.691,24.414,13.672,34.180,30.762,0
1540168295.819,34.180,22.461,10.742,35.645,61.523,0
1540168295.823,37.109,24.414,12.207,26.367,69.336,0
1540168295.827,38.574,22.461,16.602,28.320,28.320,0
1540168295.830,27.832,20.508,27.832,33.203,4.395,0
1540168295.834,19.043,21.484,32.227,30.273,42.480,0
1540168295.838,28.809,26.367,32.715,27.344,26.367,0
1540168295.842,31.250,29.297,32.227,22.461,-32.715,0
1540168295.846,22.461,31.738,29.785,31.250,-36.621,0
1540168295.850,31.250,31.250,22.461,29.297,26.855,0
1540168295.854,46.875,28.320,13.672,17.090,39.551,0
1540168295.858,55.664,30.273,10.742,18.555,-22.461,0
1540168295.862,50.781,29.785,20.508,21.484,26.367,0
1540168295.866,45.410,24.414,24.414,27.344,83.496,0
1540168295.870,43.945,28.320,21.484,31.738,84.961,0
1540168295.873,43.457,30.273,15.137,30.273,0.000,0
1540168295.877,38.086,23.926,13.672,29.785,-19.531,0
1540168295.881,27.832,20.996,35.645,35.156,79.590,0
1540168295.885,22.949,24.414,47.852,33.691,51.270,0
1540168295.889,20.508,24.414,39.551,27.832,8.301,0
1540168295.893,16.113,23.926,34.668,25.879,0.977,0
1540168295.897,20.020,25.391,30.273,35.156,8.789,0
1540168295.901,18.555,24.902,26.367,35.645,65.430,0
1540168295.905,23.438,29.297,22.949,27.344,45.898,0
1540168295.909,36.133,31.250,18.066,30.762,-3.906,0
1540168295.913,29.297,30.273,17.090,36.133,17.090,0
1540168295.916,25.391,27.344,19.043,36.621,51.758,0
1540168295.920,27.344,25.879,18.066,34.180,0.488,0
1540168295.924,26.855,29.785,11.230,34.668,-20.508,0
1540168295.928,23.926,27.344,2.441,37.109,17.578,0
1540168295.932,19.531,23.926,10.254,35.645,69.336,0
1540168295.936,21.973,25.879,26.367,28.320,62.012,0
1540168295.940,34.180,31.250,20.996,24.414,15.137,0
1540168295.944,31.738,33.203,19.531,30.762,7.812,0
1540168295.948,25.391,26.367,25.879,28.809,7.324,0
1540168295.952,26.367,19.043,23.438,22.461,24.414,0
1540168295.955,28.809,21.973,21.973,18.555,26.855,0
1540168295.959,30.273,30.762,28.320,21.973,35.156,0
1540168295.963,24.902,27.832,16.602,20.996,80.566,0
1540168295.967,23.438,27.832,6.348,20.508,51.270,0
1540168295.971,26.367,32.227,14.648,24.414,15.625,0
1540168295.975,25.391,26.855,16.113,20.508,37.598,0
1540168295.979,18.555,23.926,20.020,25.391,36.621,0
1540168295.983,16.602,23.438,20.996,29.785,42.969,0
1540168295.987,22.461,22.949,19.043,21.484,45.898,0
1540168295.991,31.738,20.508,20.020,28.320,13.672,0
1540168295.995,30.273,22.461,10.254,33.691,-20.020,0
1540168295.998,28.809,27.344,6.348,27.832,-25.879,0
1540168296.002,28.809,26.367,13.672,21.973,32.227,0
1540168296.006,29.297,22.949,14.648,23.438,1.953,0
1540168296.010,28.809,25.391,20.508,22.461,-28.320,0
1540168296.014,26.367,26.855,29.297,21.973,-2.441,0
1540168296.018,30.273,28.809,21.484,26.367,-14.160,0
1540168296.022,32.715,33.691,26.855,21.973,19.043,0
1540168296.026,30.273,30.762,23.438,19.043,55.664,0
1540168296.030,32.227,31.250,5.859,26.855,50.781,0
1540168296.034,28.809,30.273,13.672,29.297,90.820,0
1540168296.038,25.879,20.020,28.320,24.902,66.406,0
1540168296.041,36.621,20.020,26.855,26.367,8.301,0
1540168296.045,33.691,23.926,18.555,25.879,7.812,0
1540168296.049,25.879,30.273,20.020,23.438,36.133,0
1540168296.053,33.203,33.203,11.230,27.832,24.414,0
1540168296.057,41.992,27.344,5.859,31.738,58.594,0
1540168296.061,32.715,17.578,26.855,24.414,57.617,0
1540168296.065,23.926,20.020,43.457,22.949,54.199,0
1540168296.069,25.391,25.391,40.039,30.273,68.848,0
1540168296.073,35.645,31.738,17.578,28.320,57.129,0
1540168296.077,36.621,32.227,0.977,26.367,22.461,0
1540168296.080,34.668,24.414,20.020,29.297,-43.457,0
1540168296.084,35.156,21.973,43.457,25.879,-30.762,0
1540168296.088,38.574,32.227,50.293,26.367,8.301,0
1540168296.092,35.156,33.691,19.531,23.926,53.223,0
1540168296.096,28.320,24.902,15.625,17.090,-6.348,0
1540168296.100,24.902,23.438,36.621,17.578,-33.203,0
1540168296.104,28.809,22.949,29.785,18.555,9.766,0
1540168296.108,37.109,25.879,15.137,22.461,-26.367,0
1540168296.112,28.809,27.832,8.301,30.273,11.719,0
1540168296.116,22.461,20.508,19.043,31.250,36.133,0
1540168296.120,23.926,20.996,15.625,29.785,18.555,0
1540168296.123,27.344,24.902,7.324,22.461,39.062,0
1540168296.127,30.273,25.879,18.066,25.879,31.738,0
1540168296.131,22.949,34.668,11.719,31.250,31.738,0
1540168296.135,24.414,38.574,4.395,26.367,52.734,0
1540168296.139,28.809,30.762,22.461,21.484,36.621,0
1540168296.143,20.508,26.367,34.180,25.879,52.734,0
1540168296.147,20.996,24.902,36.133,30.762,47.852,0
1540168296.151,22.461,22.461,33.203,33.203,30.762,0
1540168296.155,22.949,23.926,30.762,38.086,58.594,0
1540168296.159,32.715,26.855,20.508,34.668,-10.742,0
1540168296.163,32.715,24.902,12.207,35.156,1.465,0
1540168296.166,23.438,22.461,19.043,33.203,31.738,0
1540168296.170,25.391,24.414,20.508,29.785,-23.926,0
1540168296.174,32.227,21.973,25.391,32.227,9.277,0
1540168296.178,28.809,23.926,21.484,35.156,24.414,0
1540168296.182,28.320,22.949,17.090,41.992,22.949,0
1540168296.186,24.414,23.438,30.273,39.551,51.758,0
1540168296.190,17.578,21.484,37.598,21.973,45.410,0
1540168296.194,16.602,25.879,37.109,11.230,11.230,0
1540168296.198,18.555,26.855,17.578,21.973,-0.977,0
1540168296.202,12.207,12.695,12.207,21.484,-32.227,0
1540168296.205,10.254,15.137,24.902,10.254,11.230,0
1540168296.209,16.113,26.367,31.250,18.555,85.938,0
1540168296.213,17.090,22.949,43.945,22.949,8.789,0
1540168296.217,14.160,17.578,41.016,12.695,5.859,0
1540168296.221,10.254,17.578,36.133,10.254,42.480,0
1540168296.225,19.043,18.066,36.621,22.949,60.547,0
1540168296.229,19.043,16.113,35.645,33.203,75.684,0
1540168296.233,16.602,15.625,26.367,33.203,72.266,0
1540168296.237,23.926,17.090,20.996,27.832,62.012,0
1540168296.241,32.715,17.090,24.414,28.809,44.434,0
1540168296.245,26.367,19.531,17.578,35.156,21.973,0
1540168296.248,15.625,18.066,13.184,29.297,1.953,0
1540168296.252,17.578,19.531,23.438,27.832,64.941,0
1540168296.256,29.297,23.926,29.297,36.621,79.102,0
1540168296.260,38.574,22.461,19.043,35.156,-5.371,0
1540168296.264,31.250,22.461,12.695,32.227,25.391,0
1540168296.268,30.273,22.949,22.949,31.250,81.543,0
1540168296.272,35.156,20.508,27.832,30.273,41.992,0
1540168296.276,30.273,20.996,21.973,32.715,-8.301,0
1540168296.280,29.297,20.996,20.020,32.227,-11.719,0
1540168296.284,26.367,20.508,20.020,33.203,21.484,0
1540168296.288,22.949,25.391,18.555,27.344,33.691,0
1540168296.291,30.762,25.391,0.000,22.461,25.879,0
1540168296.295,34.180,23.926,6.348,20.996,38.086,0
1540168296.299,31.738,25.391,31.738,23.438,49.316,0
1540168296.303,25.879,20.996,25.391,25.879,53.711,0
1540168296.307,18.066,18.066,21.973,13.672,-3.418,0
1540168296.311,19.043,20.996,20.508,12.695,25.391,0
1540168296.315,21.973,23.926,17.090,18.066,26.367,0
1540168296.319,18.555,20.020,17.578,13.672,21.484,0
1540168296.323,24.902,21.973,19.531,12.695,45.410,0
1540168296.327,23.438,24.902,16.113,19.043,44.434,0
1540168296.330,15.625,19.531,23.926,22.949,44.434,0
1540168296.334,15.625,19.043,25.879,22.461,17.578,0
1540168296.338,17.578,16.602,21.973,17.578,22.949,0
1540168296.342,19.531,20.508,20.996,18.066,16.113,0
1540168296.346,20.020,26.367,17.090,21.973,65.918,0
1540168296.350,20.020,25.879,22.461,19.531,93.262,0
1540168296.354,22.949,29.785,16.113,18.066,56.152,0
1540168296.358,29.297,27.832,11.719,24.414,29.297,0
1540168296.362,26.367,26.367,19.043,26.367,-18.066,0
1540168296.366,23.438,30.762,27.832,27.344,-27.344,0
1540168296.370,34.180,26.855,31.250,27.344,41.992,0
1540168296.373,40.039,21.973,22.461,20.508,21.973,0
1540168296.377,28.809,21.973,25.391,25.879,-65.918,0
1540168296.381,28.320,23.926,32.227,32.227,-27.832,0
1540168296.385,29.785,24.414,17.090,33.691,38.574,0
1540168296.389,33.691,26.855,4.883,31.738,-5.371,0
1540168296.393,38.086,28.320,5.859,28.320,-7.324,0
1540168296.397,36.133,30.762,15.137,33.203,-16.602,0
1540168296.401,31.250,31.250,35.645,31.738,-18.066,0
1540168296.405,34.668,28.320,45.898,29.297,43.457,0
1540168296.409,34.668,24.902,40.039,30.273,35.645,0
1540168296.413,28.320,23.438,31.738,28.320,42.969,0
1540168296.416,30.762,23.926,24.902,28.320,67.871,0
1540168296.420,32.715,21.973,26.855,32.715,39.551,0
1540168296.424,38.086,22.949,24.902,29.785,39.551,0
1540168296.428,24.902,26.855,28.809,22.461,72.754,1
1540168296.432,21.973,26.367,26.367,27.344,83.496,0
1540168296.436,30.762,14.648,4.883,29.785,38.574,0
1540168296.440,32.227,19.531,11.719,26.855,-14.648,0
1540168296.444,27.344,22.461,26.855,21.484,-26.367,0
1540168296.448,18.555,19.043,34.180,19.531,66.406,0
1540168296.452,16.602,19.531,42.480,20.508,77.637,0
1540168296.455,20.020,13.672,39.551,15.625,-3.418,0
1540168296.459,21.484,13.672,34.180,10.254,-13.672,0
1540168296.463,24.414,21.484,29.785,17.090,-0.977,0
1540168296.467,22.461,21.484,19.531,21.484,-8.301,0
1540168296.471,23.438,22.461,18.555,19.531,15.625,0
1540168296.475,30.273,24.414,23.438,20.020,48.828,0
1540168296.479,31.250,20.996,9.277,23.926,85.449,0
1540168296.483,29.297,22.949,4.395,29.785,91.797,0
1540168296.487,22.461,21.484,12.695,26.855,-2.930,0
1540168296.491,25.879,22.461,20.020,22.949,31.738,0
1540168296.495,36.133,28.320,28.809,29.297,78.613,0
1540168296.498,33.691,28.320,38.574,20.020,21.973,0
1540168296.502,22.461,22.949,37.598,4.883,-23.926,0
1540168296.506,25.879,20.996,25.879,7.324,2.441,0
1540168296.510,35.156,26.367,22.461,19.043,69.336,0
1540168296.514,35.156,29.785,25.879,29.785,60.059,0
1540168296.518,32.227,34.668,20.020,32.715,30.762,0
1540168296.522,30.762,28.320,26.855,27.832,85.938,0
1540168296.526,26.855,25.879,30.762,27.344,62.988,0
1540168296.530,20.996,27.832,19.531,28.809,33.203,0
1540168296.534,17.090,22.461,18.066,19.531,62.988,0
1540168296.538,24.414,21.973,25.879,20.508,6.348,0
1540168296.541,31.738,22.461,13.184,22.949,-22.461,0
1540168296.545,35.156,21.484,13.672,28.320,44.434,0
1540168296.549,33.691,22.949,36.133,33.691,56.152,0
1540168296.553,25.879,34.180,27.344,26.367,6.348,0
1540168296.557,26.367,31.738,26.855,21.484,-6.348,0
1540168296.561,20.996,22.461,40.527,23.438,50.293,0
1540168296.565,23.926,25.879,33.203,24.902,21.973,0
1540168296.569,28.809,24.902,25.879,23.926,23.926,0
1540168296.573,27.832,20.508,14.160,29.297,41.992,0
1540168296.577,30.273,22.949,20.996,32.227,7.812,0
1540168296.580,31.738,24.414,23.926,32.715,32.715,0
1540168296.584,37.598,23.926,1.465,37.598,21.973,0
1540168296.588,39.062,21.484,-9.277,30.273,21.484,0
1540168296.592,27.344,20.508,12.695,20.508,16.602,0
1540168296.596,21.484,37.109,45.410,28.320,40.527,0
1540168296.600,14.648,33.203,48.340,19.531,54.688,0
1540168296.604,8.301,23.926,41.016,9.766,48.340,0
1540168296.608,19.043,28.320,43.457,25.879,5.859,0
1540168296.612,28.320,24.902,27.832,37.109,37.109,0
1540168296.616,29.785,29.297,17.090,32.227,73.730,0
1540168296.620,33.203,31.738,34.180,24.902,50.293,0
1540168296.623,45.898,24.902,29.297,20.508,27.832,0
1540168296.627,49.316,24.414,17.578,17.578,-1.953,0
1540168296.631,47.363,27.832,15.625,16.602,37.598,0
1540168296.635,50.781,29.297,17.090,21.973,3.906,0
1540168296.639,54.199,27.344,23.438,27.344,-6.836,0
1540168296.643,46.875,23.926,20.020,28.320,99.121,0
1540168296.647,40.527,25.879,9.766,31.738,105.469,0
1540168296.651,36.133,29.297,20.996,38.086,-8.301,0
1540168296.655,26.855,21.973,19.043,34.180,11.719,0
1540168296.659,29.297,18.555,16.113,32.227,47.852,0
1540168296.663,34.668,25.879,31.738,44.434,45.898,0
1540168296.666,36.621,24.414,32.227,48.340,28.809,0
1540168296.670,35.156,18.555,8.301,38.086,-38.574,0
1540168296.674,40.039,22.949,15.625,38.086,21.484,0
1540168296.678,35.645,20.508,41.016,36.133,52.246,0
1540168296.682,21.484,15.137,41.992,26.855,13.672,0
1540168296.686,24.414,19.531,25.391,29.785,20.996,0
1540168296.690,32.227,17.578,19.043,23.438,34.180,0
1540168296.694,34.668,20.996,23.438,27.344,14.160,0
1540168296.698,25.391,22.949,18.555,30.762,1.465,0
1540168296.702,17.578,16.602,30.762,21.484,17.578,0
1540168296.705,33.203,20.020,33.203,25.391,-40.039,0
1540168296.709,35.156,23.926,12.695,24.902,-43.945,0
1540168296.713,31.250,21.973,11.230,27.832,-30.762,0
1540168296.717,36.621,27.344,19.043,38.086,-12.695,0
1540168296.721,34.180,30.762,17.578,36.133,37.598,0
1540168296.725,33.203,24.902,20.508,31.738,10.742,0
1540168296.729,30.762,26.367,26.367,37.598,37.598,0
1540168296.733,32.227,21.973,30.762,41.504,57.617,0
1540168296.737,34.180,17.578,24.902,41.504,18.066,0
1540168296.741,33.691,21.973,5.371,41.016,35.156,0
1540168296.745,27.344,21.484,6.348,35.645,68.359,0
1540168296.748,20.996,23.438,27.344,28.320,41.992,0
1540168296.752,23.926,25.391,21.973,29.785,-39.551,0
1540168296.756,29.785,29.297,28.809,24.414,7.324,0
1540168296.760,28.320,30.762,38.574,20.508,53.223,0
1540168296.764,29.785,32.227,32.227,29.297,31.738,0
1540168296.768,31.250,38.574,28.809,29.297,23.926,0
1540168296.772,38.574,38.086,18.066,26.855,83.984,0
1540168296.776,42.480,35.156,20.020,30.762,116.699,0
1540168296.780,30.762,27.344,27.832,31.250,24.902,0
1540168296.784,21.484,28.809,18.066,22.949,-21.973,0
1540168296.788,10.254,25.879,16.113,14.160,-11.719,0
1540168296.791,5.859,26.855,21.484,12.207,32.227,0
1540168296.795,15.625,36.621,25.879,15.137,45.898,0
1540168296.799,21.973,34.668,24.902,21.484,33.691,0
1540168296.803,-22.949,19.043,13.184,-22.949,15.625,0
1540168296.807,-47.852,21.484,1.953,-54.688,33.203,0
1540168296.811,-7.324,49.805,18.555,-15.137,85.938,0
1540168296.815,-2.930,59.082,14.160,-9.766,103.516,0
1540168296.819,-20.508,53.223,9.277,-35.156,51.758,0
1540168296.823,-38.574,53.223,13.184,-53.223,-25.391,0
1540168296.827,-61.035,58.594,-1.953,-68.848,-45.410,0
1540168296.830,-62.500,60.059,5.859,-66.406,-22.461,0
1540168296.834,-63.965,61.523,19.531,-68.359,46.875,0
1540168296.838,-62.500,69.336,24.902,-75.195,25.391,0
1540168296.842,-54.688,77.148,24.414,-70.312,34.668,0
1540168296.846,-48.340,81.055,10.742,-54.688,81.055,0
1540168296.850,-60.059,75.684,12.695,-54.199,45.410,0
1540168296.854,-65.918,74.707,35.156,-64.453,28.809,0
1540168296.858,-51.758,75.195,27.832,-64.941,-6.836,0
1540168296.862,-47.363,76.660,33.691,-53.223,-23.926,0
1540168296.866,-43.945,69.824,51.270,-52.246,49.316,0
1540168296.870,-42.480,59.082,40.527,-53.711,1.953,0
1540168296.873,-26.855,69.336,38.086,-44.922,-44.922,0
1540168296.877,-8.789,74.707,37.109,-29.785,54.688,0
1540168296.881,-15.137,61.523,22.949,-19.043,74.707,0
1540168296.885,-12.207,58.105,20.020,-13.184,-24.902,0
1540168296.889,5.371,54.688,35.645,-0.977,-66.895,0
1540168296.893,1.465,47.363,37.109,-5.371,9.277,0
1540168296.897,-0.488,46.875,30.762,-4.395,50.293,0
1540168296.901,-0.977,41.992,26.855,-1.465,45.410,0
1540168296.905,3.418,41.016,19.043,-2.441,73.242,0
1540168296.909,20.996,39.062,20.508,16.113,84.473,0
1540168296.913,24.902,35.156,23.438,23.438,11.719,0
1540168296.916,22.461,32.227,17.090,20.996,9.277,0
1540168296.920,19.531,29.297,10.254,20.508,27.832,0
1540168296.924,26.367,29.785,7.324,21.973,-6.836,0
1540168296.928,28.320,24.414,17.090,32.715,36.621,0
1540168296.932,26.367,22.461,22.461,34.180,69.336,0
1540168296.936,24.902,25.879,18.555,35.156,6.348,0
1540168296.940,34.180,21.973,23.926,37.598,5.371,0
1540168296.944,43.457,18.555,14.160,40.039,50.293,0
1540168296.948,44.434,20.996,10.742,56.152,28.320,0
1540168296.952,48.340,23.438,16.602,59.082,2.930,0
1540168296.955,44.434,19.531,21.484,42.969,31.738,0
1540168296.959,35.156,12.695,36.621,45.898,38.574,0
1540168296.963,36.621,15.625,37.109,53.711,3.906,0
1540168296.967,43.457,18.066,35.156,55.176,34.668,0
1540168296.971,47.363,13.672,27.344,55.176,34.668,0
1540168296.975,54.688,16.113,25.879,62.988,-35.156,2
1540168296.979,60.059,18.555,32.715,75.195,-2.441,0
1540168296.983,57.617,13.184,28.320,79.102,39.062,0
1540168296.987,55.176,11.230,25.391,69.336,71.777,0
1540168296.991,61.035,15.137,27.344,59.082,120.117,0
1540168296.995,65.918,19.043,20.996,66.406,84.473,0
1540168296.998,59.082,18.555,13.672,67.871,60.547,0
1540168297.002,59.570,10.742,20.508,70.312,30.762,0
1540168297.006,55.176,10.742,31.250,66.406,1.953,0
1540168297.010,54.199,16.602,30.273,61.523,22.461,0
1540168297.014,60.547,17.090,23.926,74.707,18.066,0
1540168297.018,53.711,11.230,27.832,66.406,21.484,0
1540168297.022,50.293,10.742,29.785,47.852,20.020,0
1540168297.026,55.664,13.672,24.902,48.340,10.742,0
1540168297.030,61.035,16.113,21.973,56.641,68.848,0
1540168297.034,60.547,17.578,25.391,57.129,41.992,0
1540168297.038,62.500,17.578,25.879,54.688,13.184,0
1540168297.041,62.500,17.578,21.973,55.664,63.477,0
1540168297.045,57.617,18.555,14.160,53.223,25.879,0
1540168297.049,55.664,20.020,17.578,52.246,37.598,0
1540168297.053,56.152,20.020,19.043,50.781,70.801,0
1540168297.057,60.547,22.949,15.137,45.898,14.160,0
1540168297.061,57.129,24.414,18.066,48.828,33.691,0
1540168297.065,51.270,21.973,13.672,54.199,53.711,0
1540168297.069,48.828,20.508,19.043,51.270,-1.953,0
1540168297.073,53.223,20.508,21.484,46.875,-28.320,0
1540168297.077,51.758,25.391,12.695,47.363,-3.418,0
1540168297.080,46.387,24.902,15.137,52.246,10.742,0
1540168297.084,50.781,23.438,26.855,51.270,34.668,0
1540168297.088,50.781,21.973,22.461,47.363,16.113,0
1540168297.092,47.852,22.461,11.230,44.922,-10.742,0
1540168297.096,42.969,25.879,18.066,38.574,5.371,0
1540168297.100,45.898,27.832,22.949,41.992,-22.949,0
1540168297.104,43.457,24.902,20.508,40.527,4.883,0
1540168297.108,40.039,21.484,30.273,35.156,13.672,0
1540168297.112,41.992,23.438,27.832,37.109,10.254,0
1540168297.116,38.086,26.855,20.508,38.086,48.828,0
1540168297.120,40.039,22.949,10.254,45.898,94.727,0
1540168297.123,45.898,22.461,17.090,39.062,75.684,0
1540168297.127,43.457,20.020,40.527,31.738,35.156,0
1540168297.131,34.668,18.555,36.621,35.645,0.488,0
1540168297.135,32.715,23.438,34.180,33.691,65.430,0
1540168297.139,31.250,23.926,29.297,27.832,87.402,0
1540168297.143,38.574,25.879,23.438,32.227,65.918,0
1540168297.147,41.016,21.973,21.973,37.598,90.332,0
1540168297.151,29.785,15.625,21.484,35.156,36.621,0
1540168297.155,25.879,12.207,20.020,30.273,50.781,0
1540168297.159,39.062,19.043,25.879,28.809,-8.789,0
1540168297.163,40.039,21.973,26.367,36.133,-48.340,0
1540168297.166,27.344,16.602,24.414,40.039,6.348,0
1540168297.170,25.879,14.648,34.180,32.227,13.184,0
1540168297.174,33.203,14.648,26.855,33.691,18.555,0
1540168297.178,34.180,14.648,21.973,35.156,41.016,0
1540168297.182,29.297,16.602,29.297,31.250,18.555,0
1540168297.186,32.227,15.137,25.879,30.762,-3.906,0
1540168297.190,32.715,13.672,23.926,29.297,28.809,0
1540168297.194,23.926,16.602,23.438,29.297,67.383,0
1540168297.198,15.625,11.719,22.461,35.645,91.309,0
1540168297.202,15.625,9.277,16.602,39.551,26.855,0
1540168297.205,24.414,14.160,17.578,27.832,18.555,0
1540168297.209,21.973,14.160,20.996,20.020,42.969,0
1540168297.213,17.578,17.090,20.508,28.809,-6.836,0
1540168297.217,22.949,17.578,23.926,30.762,12.695,0
1540168297.221,16.113,16.602,20.508,19.531,24.414,0
1540168297.225,17.090,17.578,17.578,19.531,30.273,0
1540168297.229,25.879,17.578,27.832,27.832,18.555,0
1540168297.233,23.438,18.555,32.227,26.367,31.250,0
1540168297.237,28.809,25.391,16.602,28.809,29.297,0
1540168297.241,41.504,31.738,8.301,35.156,-45.410,0
1540168297.245,32.715,26.855,19.531,34.180,-23.438,0
1540168297.248,27.344,19.531,29.297,28.320,41.504,0
1540168297.252,30.762,15.625,23.926,22.461,21.484,0
1540168297.256,35.156,15.137,15.625,16.113,34.180,0
1540168297.260,36.621,22.949,23.438,16.113,70.312,0
1540168297.264,23.926,26.367,31.250,17.090,49.316,0
1540168297.268,23.438,29.297,30.762,16.113,26.367,0
1540168297.272,33.203,28.809,28.809,19.531,42.480,0
1540168297.276,35.156,26.855,28.320,23.926,54.688,0
1540168297.280,37.109,26.855,25.879,31.738,-7.812,0
1540168297.284,38.086,21.484,22.461,30.273,-40.039,0
1540168297.288,38.086,21.484,22.949,26.367,7.324,0
1540168297.291,37.598,27.344,23.438,28.320,47.363,0
1540168297.295,33.691,26.367,23.438,30.273,57.617,0
1540168297.299,26.367,20.508,29.297,30.273,20.508,0
1540168297.303,32.227,20.996,32.227,31.250,-43.945,0
1540168297.307,38.574,27.344,25.879,30.762,-61.035,0
1540168297.311,34.668,27.832,34.668,31.738,46.387,0
1540168297.315,35.645,26.367,40.039,35.156,76.660,0
1540168297.319,35.156,25.879,29.297,34.180,-6.348,0
1540168297.323,37.598,23.926,25.391,34.668,28.320,0
1540168297.327,39.062,28.809,29.297,35.156,69.824,0
1540168297.330,39.062,31.738,30.273,33.691,12.695,0
1540168297.334,34.668,29.785,30.273,34.180,-53.223,0
1540168297.338,36.133,28.809,29.297,32.715,-16.113,0
1540168297.342,39.062,27.344,21.973,24.902,16.602,0
1540168297.346,38.086,30.762,20.020,28.809,20.996,0
1540168297.350,33.203,34.180,25.391,38.574,55.664,0
1540168297.354,30.273,26.855,27.832,36.621,33.203,0
1540168297.358,36.621,19.043,25.879,31.250,15.625,0
1540168297.362,37.598,24.902,32.227,28.809,51.270,0
1540168297.366,34.180,28.809,28.809,28.809,20.996,0
1540168297.370,24.414,25.391,14.648,27.832,-6.348,0
1540168297.373,22.949,27.832,16.113,22.461,17.090,0
1540168297.377,32.227,31.738,27.832,24.902,-12.207,0
1540168297.381,30.273,32.227,34.668,25.391,-24.902,0
1540168297.385,24.414,31.738,31.738,12.695,52.734,0
1540168297.389,32.227,29.297,20.996,9.277,73.242,0
1540168297.393,42.480,28.809,13.184,18.066,32.227,0
1540168297.397,42.480,29.297,14.160,17.578,33.203,0
1540168297.401,44.922,26.855,22.461,19.043,35.156,0
1540168297.405,49.316,21.973,20.508,15.137,-0.488,0
1540168297.409,41.504,22.949,10.254,10.254,51.758,0
1540168297.413,29.297,25.391,16.113,13.184,19.531,0
1540168297.416,22.461,27.344,17.578,17.090,-3.418,0
1540168297.420,22.949,26.855,20.508,24.414,39.062,0
1540168297.424,21.484,21.973,22.461,23.438,-7.812,0
1540168297.428,17.090,21.973,24.902,19.531,73.242,0
1540168297.432,14.160,22.461,35.156,17.090,79.590,0
1540168297.436,12.695,21.973,32.227,14.160,64.941,0
1540168297.440,16.113,23.926,23.438,17.090,29.785,0
1540168297.444,15.625,23.926,23.926,21.484,-31.738,0
1540168297.448,17.090,22.461,28.809,23.926,-12.207,0
1540168297.452,11.230,19.043,32.715,24.414,-34.180,0
1540168297.455,12.207,20.508,25.879,20.996,-7.324,0
1540168297.459,19.043,17.578,24.902,24.414,37.598,0
1540168297.463,18.555,20.996,30.762,33.203,13.184,0
1540168297.467,13.672,23.438,30.273,30.762,29.297,0
1540168297.471,22.949,19.531,34.180,25.879,41.992,0
1540168297.475,27.832,22.461,32.227,22.949,30.762,0
1540168297.479,22.461,27.832,23.438,26.367,-18.066,0
1540168297.483,21.973,26.855,25.391,33.691,-36.133,0
1540168297.487,21.973,24.414,32.715,30.273,1.465,0
1540168297.491,29.785,27.832,31.250,27.832,6.348,0
1540168297.495,27.832,28.809,24.902,28.320,-3.906,0
1540168297.498,20.508,23.438,29.297,26.855,8.301,0
1540168297.502,18.555,22.461,38.574,29.785,25.391,0
1540168297.506,17.090,23.438,38.574,29.785,45.410,0
1540168297.510,21.973,20.020,27.832,27.832,20.508,0
1540168297.514,34.180,18.555,26.855,34.180,6.348,0
1540168297.518,33.691,22.949,28.809,37.598,-10.254,0
1540168297.522,32.227,26.367,15.137,38.086,-55.176,0
1540168297.526,40.039,27.832,18.066,40.039,-26.855,0
1540168297.530,37.109,26.367,30.762,38.086,40.039,0
1540168297.534,29.297,28.809,17.578,38.086,62.500,0
1540168297.538,28.809,32.227,20.508,38.086,28.320,0
1540168297.541,34.668,27.344,38.574,40.039,-25.879,0
1540168297.545,35.156,23.438,38.574,40.527,21.973,0
1540168297.549,30.762,22.949,37.598,35.156,41.504,0
1540168297.553,37.109,29.297,30.273,47.852,25.391,0
1540168297.557,46.387,33.203,30.762,42.480,54.688,0
1540168297.561,38.574,29.297,38.574,24.902,17.090,1
1540168297.565,36.133,27.832,38.574,35.156,50.781,0
1540168297.569,40.527,31.738,35.156,37.598,88.867,0
1540168297.573,44.922,31.250,18.066,29.297,69.336,0
1540168297.577,45.410,26.367,26.855,31.250,68.359,0
1540168297.580,32.715,26.855,40.527,25.391,48.340,0
1540168297.584,25.879,28.809,39.551,21.484,20.020,0
1540168297.588,30.273,27.832,36.621,24.902,6.348,0
1540168297.592,32.715,27.344,28.320,23.926,25.879,0
1540168297.596,30.762,24.902,26.855,25.391,29.785,0
1540168297.600,37.109,26.367,32.715,26.367,58.105,0
1540168297.604,38.574,28.320,32.715,21.484,52.734,0
1540168297.608,38.574,26.367,32.227,20.996,-2.441,0
1540168297.612,35.645,26.855,32.227,27.344,29.297,0
1540168297.616,27.344,23.438,27.344,21.484,-8.301,0
1540168297.620,28.320,22.461,27.344,22.461,-25.391,0
1540168297.623,40.527,27.344,26.855,24.414,29.785,0
1540168297.627,37.109,28.320,20.508,22.461,24.902,0
1540168297.631,31.250,29.785,16.113,30.762,102.051,0
1540168297.635,38.574,20.508,11.230,36.621,67.383,0
1540168297.639,38.574,12.207,18.066,28.320,-25.879,0
1540168297.643,37.598,28.809,31.250,19.043,7.324,0
1540168297.647,34.668,29.297,30.273,22.949,23.926,0
1540168297.651,29.785,11.230,29.297,23.438,47.852,0
1540168297.655,35.645,23.438,32.715,24.902,59.082,0
1540168297.659,36.133,34.180,25.391,31.250,44.434,0
1540168297.663,31.250,33.691,28.809,35.156,52.246,0
1540168297.666,29.785,37.598,37.109,32.715,58.105,0
1540168297.670,33.691,39.062,42.480,22.949,61.523,0
1540168297.674,35.645,37.109,38.086,22.461,24.902,0
1540168297.678,34.180,41.016,27.344,31.738,-1.465,0
1540168297.682,28.809,44.434,27.344,27.344,-30.273,0
1540168297.686,20.996,35.156,29.297,20.996,13.184,0
1540168297.690,21.484,33.691,30.762,18.066,57.617,0
1540168297.694,21.484,35.645,21.973,17.578,32.227,0
1540168297.698,20.020,32.227,17.090,22.949,16.113,0
1540168297.702,20.996,29.297,25.391,19.531,-5.859,0
1540168297.705,25.391,28.320,24.902,11.230,9.766,0
1540168297.709,27.832,30.273,26.367,16.602,12.695,0
1540168297.713,30.762,27.344,31.250,25.391,27.832,0
1540168297.717,26.855,24.414,30.762,26.367,38.574,0
1540168297.721,17.578,25.879,29.297,26.855,14.160,0
1540168297.725,20.020,21.973,29.297,24.414,19.531,0
1540168297.729,21.973,20.508,35.645,20.996,36.621,0
1540168297.733,19.043,20.996,27.832,19.531,12.207,0
1540168297.737,12.695,23.926,21.484,22.461,-8.301,0
1540168297.741,16.113,31.738,29.297,25.391,46.387,0
1540168297.745,23.438,32.715,27.344,30.273,58.594,0
1540168297.748,19.043,29.297,27.832,31.250,7.812,0
1540168297.752,16.113,26.855,31.250,27.832,-6.348,0
1540168297.756,28.809,28.320,31.250,27.344,-3.418,0
1540168297.760,28.320,27.344,31.250,26.367,2.441,0
1540168297.764,20.508,26.367,32.227,34.180,62.988,0
1540168297.768,28.809,33.691,30.273,38.086,62.500,0
1540168297.772,36.621,35.645,26.367,30.273,28.320,0
1540168297.776,35.156,32.715,30.762,28.320,-7.324,0
1540168297.780,34.668,32.227,32.227,34.668,-17.578,0
1540168297.784,36.133,27.344,32.715,36.133,60.059,0
1540168297.788,34.668,24.414,35.156,30.273,100.098,0
1540168297.791,36.621,31.738,39.062,24.902,30.273,0
1540168297.795,33.691,35.645,38.086,29.785,14.648,0
1540168297.799,30.762,31.738,29.785,37.598,0.000,0
1540168297.803,39.551,29.785,28.320,35.156,5.859,0
1540168297.807,46.875,30.762,25.879,30.273,43.945,0
1540168297.811,37.598,35.156,26.855,31.250,49.316,0
1540168297.815,34.180,30.273,30.273,36.133,38.086,0
1540168297.819,38.574,23.926,24.902,34.668,3.906,0
1540168297.823,38.086,27.344,18.066,28.320,30.762,0
1540168297.827,36.133,27.832,25.879,35.645,-3.906,0
1540168297.830,32.227,31.738,27.344,37.109,-72.266,0
1540168297.834,31.738,35.645,21.973,32.715,-21.484,0
1540168297.838,38.574,34.180,23.926,34.180,56.641,0
1540168297.842,43.945,36.133,21.484,37.109,104.980,0
1540168297.846,39.062,37.109,19.531,39.551,38.086,0
1540168297.850,33.203,34.180,19.043,40.039,-0.977,0
1540168297.854,36.621,29.297,24.414,39.062,52.734,0
1540168297.858,44.434,32.715,30.273,41.016,50.781,0
1540168297.862,41.016,36.133,20.996,40.527,51.270,0
1540168297.866,32.715,26.367,6.348,34.668,40.527,0
1540168297.870,36.133,30.273,10.254,35.156,35.645,0
1540168297.873,41.016,39.062,34.668,39.551,14.648,0
1540168297.877,30.762,33.203,41.016,38.574,40.527,0
1540168297.881,28.809,27.344,32.227,37.109,31.738,0
1540168297.885,31.738,32.227,23.438,32.227,-4.883,0
1540168297.889,32.227,28.809,20.020,22.461,-14.160,0
1540168297.893,32.715,26.367,9.766,28.809,-16.602,0
1540168297.897,29.785,30.762,12.207,36.621,58.594,0
1540168297.901,24.414,28.809,34.668,29.297,20.020,0
1540168297.905,25.391,35.645,34.180,20.996,-13.672,0
1540168297.909,31.250,42.480,30.273,22.461,23.438,0
1540168297.913,27.832,35.645,26.367,23.926,-6.348,0
1540168297.916,28.320,35.156,3.906,31.250,13.184,0
1540168297.920,24.902,33.691,-6.348,34.668,62.012,0
1540168297.924,28.320,25.879,20.020,30.273,83.496,0
1540168297.928,31.738,25.391,26.367,28.809,47.363,0
1540168297.932,20.996,27.832,14.160,20.996,-7.324,0
1540168297.936,16.113,25.391,11.230,19.043,-37.109,0
1540168297.940,18.555,24.902,13.184,18.066,0.977,0
1540168297.944,21.973,25.879,15.625,21.973,34.180,0
1540168297.948,24.902,23.926,12.695,26.855,48.340,0
1540168297.952,22.949,27.344,4.395,25.391,79.590,0
1540168297.955,18.066,27.344,7.812,20.020,41.992,0
1540168297.959,21.973,21.973,14.160,16.602,-7.812,0
1540168297.963,25.391,21.973,16.602,19.531,51.270,0
1540168297.967,21.484,26.367,24.902,25.879,94.727,0
1540168297.971,21.973,27.832,16.113,24.414,9.277,0
1540168297.975,25.391,23.926,4.883,20.508,-12.207,0
1540168297.979,28.809,17.090,14.648,29.297,60.547,0
1540168297.983,20.020,19.043,20.508,25.879,42.480,0
1540168297.987,20.996,27.344,11.719,15.625,3.906,0
1540168297.991,30.273,35.156,8.301,20.996,-4.883,0
1540168297.995,30.273,35.156,4.395,28.809,32.227,0
1540168297.998,31.250,21.484,13.184,29.297,27.344,0
1540168298.002,27.832,15.625,27.832,20.020,17.578,0
1540168298.006,27.344,27.832,25.879,20.996,28.320,0
1540168298.010,19.043,32.715,20.996,24.902,30.273,0
1540168298.014,10.742,28.320,26.367,19.531,14.160,0
1540168298.018,12.207,29.297,33.691,17.090,23.438,0
1540168298.022,16.602,30.273,33.691,19.531,23.438,0
1540168298.026,19.043,27.344,26.367,22.461,48.828,0
1540168298.030,15.625,27.832,16.113,23.926,67.871,0
1540168298.034,17.090,29.297,14.648,30.273,39.551,0
1540168298.038,24.902,27.344,17.578,32.715,13.672,0
1540168298.041,32.227,29.785,21.484,29.297,34.180,0
1540168298.045,37.598,37.109,19.531,38.574,49.805,0
1540168298.049,33.691,32.227,18.555,38.086,-1.465,0
1540168298.053,31.250,23.926,22.949,35.645,28.809,0
1540168298.057,33.691,24.902,28.320,35.156,32.227,0
1540168298.061,29.785,27.832,25.391,24.414,-7.812,0
1540168298.065,35.156,29.297,20.508,32.227,36.621,0
1540168298.069,38.574,27.832,18.555,43.457,21.484,0
1540168298.073,36.621,28.320,14.160,33.691,-0.488,0
1540168298.077,38.086,30.273,21.484,31.250,22.461,0
1540168298.080,37.598,31.738,31.250,37.598,60.547,0
1540168298.084,35.156,32.227,31.250,41.016,82.031,0
1540168298.088,36.133,28.809,20.996,36.133,19.043,0
1540168298.092,40.039,27.832,18.555,26.367,14.648,0
1540168298.096,30.273,26.855,20.996,26.367,35.156,0
1540168298.100,20.996,26.855,15.137,27.832,25.879,0
1540168298.104,20.996,25.879,13.672,20.996,17.090,0
1540168298.108,28.320,26.367,7.812,19.531,7.324,0
1540168298.112,33.203,27.832,3.906,28.320,33.691,0
1540168298.116,33.203,28.809,18.066,33.691,-8.301,0
1540168298.120,32.227,30.273,29.785,31.250,41.016,0
1540168298.123,27.344,24.902,25.879,23.438,60.059,0
1540168298.127,26.855,22.461,17.578,22.949,-4.395,0
1540168298.131,25.879,25.391,20.508,23.926,-2.441,0
1540168298.135,24.414,26.855,16.602,29.297,4.395,0
1540168298.139,24.902,27.832,12.207,31.250,53.223,0
1540168298.143,23.926,26.367,17.090,24.414,69.336,0
1540168298.147,20.508,24.414,13.672,20.020,8.301,0
1540168298.151,15.625,23.926,14.648,20.996,2.930,0
1540168298.155,20.508,29.785,26.367,21.973,10.742,0
1540168298.159,26.855,27.832,29.785,18.066,-2.441,0
1540168298.163,25.879,25.391,21.484,19.531,-13.672,0
1540168298.166,26.367,31.738,15.137,28.809,48.828,0
1540168298.170,39.551,36.133,15.137,30.762,58.594,0
1540168298.174,54.199,34.180,24.414,26.367,30.762,0
1540168298.178,47.852,25.391,20.996,13.184,0.488,0
1540168298.182,38.574,29.297,8.789,3.418,-7.812,0
1540168298.186,36.621,37.598,15.625,7.324,6.348,0
1540168298.190,39.551,37.109,22.461,2.930,-28.809,0
1540168298.194,32.227,33.691,20.996,9.277,12.695,0
1540168298.198,17.578,33.691,26.367,17.578,71.289,0
1540168298.202,18.066,33.203,24.414,21.973,49.805,0
1540168298.205,23.438,32.227,15.625,26.367,46.387,0
1540168298.209,21.484,31.250,25.391,25.879,18.555,0
1540168298.213,21.484,31.738,30.273,30.273,-5.371,0
1540168298.217,19.531,33.691,24.414,33.203,28.809,0
1540168298.221,22.949,33.691,24.902,34.180,14.648,1
1540168298.225,24.902,34.180,18.066,30.762,-37.598,0
1540168298.229,22.461,33.691,17.578,31.250,-37.109,0
1540168298.233,23.926,32.715,27.344,29.297,3.906,0
1540168298.237,20.996,35.645,23.926,22.461,18.066,0
1540168298.241,28.809,39.062,24.902,25.879,27.832,0
1540168298.245,27.344,38.574,36.621,31.250,15.625,0
1540168298.248,17.090,34.180,37.109,29.297,55.664,0
1540168298.252,20.508,33.691,29.297,29.297,96.191,0
1540168298.256,23.438,28.809,26.855,29.785,75.684,0
1540168298.260,25.879,29.297,30.273,28.809,37.109,0
1540168298.264,24.414,31.738,25.879,34.668,15.625,0
1540168298.268,26.855,26.367,20.508,38.086,17.578,0
1540168298.272,32.227,27.344,22.949,31.250,27.832,0
1540168298.276,28.320,30.273,22.949,27.344,43.945,0
1540168298.280,28.320,37.598,21.484,34.180,69.824,0
1540168298.284,29.785,38.086,23.926,35.156,36.133,0
1540168298.288,28.809,31.250,22.949,31.738,42.480,0
1540168298.291,31.250,32.715,16.602,29.785,59.082,0
1540168298.295,27.344,31.250,20.996,28.320,17.578,0
1540168298.299,26.367,33.691,35.156,32.227,41.504,0
1540168298.303,22.949,34.668,35.156,29.785,79.590,0
1540168298.307,24.414,32.715,26.855,23.926,15.137,0
1540168298.311,26.367,32.715,20.508,24.414,21.973,0
1540168298.315,24.414,33.203,25.391,30.762,34.668,0
1540168298.319,29.297,34.668,27.344,34.180,-40.527,0
1540168298.323,39.062,34.668,30.273,34.668,3.418,0
1540168298.327,39.551,32.715,26.367,38.574,46.875,0
1540168298.330,36.133,31.250,10.742,37.598,13.184,0
1540168298.334,36.133,33.691,16.113,37.109,29.785,0
1540168298.338,40.527,35.156,31.738,38.574,46.875,0
1540168298.342,42.480,31.738,34.180,39.551,9.277,0
1540168298.346,31.738,31.250,29.297,34.668,-19.531,0
1540168298.350,33.203,30.762,31.250,29.297,79.102,0
1540168298.354,41.016,28.809,31.250,31.250,80.566,0
1540168298.358,43.945,33.203,25.391,31.738,11.230,0
1540168298.362,41.992,34.668,17.090,31.738,9.766,0
1540168298.366,40.527,35.645,21.484,37.598,22.949,0
1540168298.370,45.898,39.551,31.738,41.504,21.484,0
1540168298.373,55.664,37.109,22.949,38.086,25.879,0
1540168298.377,49.805,35.645,19.043,35.156,26.855,0
1540168298.381,40.527,42.969,26.855,37.598,32.227,0
1540168298.385,45.410,47.363,30.762,38.086,9.766,0
1540168298.389,52.246,40.527,30.273,33.691,16.113,0
1540168298.393,52.246,31.250,26.367,36.621,21.484,0
1540168298.397,41.504,32.227,32.715,38.086,-30.273,0
1540168298.401,43.945,43.457,39.551,39.551,6.348,0
1540168298.405,46.387,41.504,40.039,34.180,36.133,0
1540168298.409,45.410,35.156,36.621,28.809,41.504,0
1540168298.413,49.805,35.645,21.973,32.227,3.906,0
1540168298.416,45.410,30.273,24.902,31.250,7.812,0
1540168298.420,42.480,33.691,30.273,25.391,20.996,0
1540168298.424,43.457,38.574,14.648,27.832,-6.348,0
1540168298.428,39.062,33.691,22.461,32.715,28.809,0
1540168298.432,37.109,36.133,39.551,34.180,43.457,0
1540168298.436,41.992,36.621,30.762,34.180,52.246,0
1540168298.440,40.527,28.809,25.879,30.273,75.684,0
1540168298.444,38.086,30.762,34.668,36.621,41.992,0
1540168298.448,39.062,34.668,27.344,43.457,-8.789,0
1540168298.452,33.203,27.344,22.461,40.039,-20.508,0
1540168298.455,33.203,23.438,26.855,36.133,35.645,0
1540168298.459,36.133,24.902,20.020,27.344,54.688,0
1540168298.463,28.320,24.902,25.879,29.785,13.184,0
1540168298.467,27.832,29.297,25.391,37.109,64.941,0
1540168298.471,34.180,24.902,11.719,41.992,69.824,0
1540168298.475,32.715,21.484,17.578,35.645,52.246,0
1540168298.479,30.273,24.414,19.531,25.879,98.145,0
1540168298.483,29.785,23.438,20.020,32.227,40.527,0
1540168298.487,27.832,27.832,22.461,36.133,4.883,0
1540168298.491,30.273,27.344,19.531,34.180,39.551,0
1540168298.495,30.762,26.855,16.602,28.809,49.805,0
1540168298.498,23.926,22.949,14.648,20.508,27.344,0
1540168298.502,22.461,22.461,14.648,21.973,28.809,0
1540168298.506,29.297,26.855,16.113,25.391,47.852,0
1540168298.510,36.621,29.297,21.484,27.344,69.824,0
1540168298.514,35.645,27.832,16.602,32.227,58.105,0
1540168298.518,27.832,23.438,9.766,33.691,70.801,0
1540168298.522,32.227,23.438,6.348,36.621,50.781,0
1540168298.526,41.504,28.320,15.625,40.527,-13.184,0
1540168298.530,32.715,25.391,30.762,35.645,56.152,0
1540168298.534,25.879,22.949,28.320,35.645,79.590,0
1540168298.538,30.273,28.809,27.832,39.062,62.012,0
1540168298.541,32.227,30.762,28.809,39.551,52.734,0
1540168298.545,28.809,30.273,25.391,37.598,7.324,0
1540168298.549,26.367,27.344,25.879,26.855,14.160,0
1540168298.553,25.391,25.391,28.809,20.020,24.902,0
1540168298.557,27.832,24.902,27.832,20.996,-0.488,0
1540168298.561,28.809,26.855,26.855,22.949,28.809,0
1540168298.565,28.320,23.438,25.391,27.832,63.477,0
1540168298.569,30.273,20.020,23.438,34.180,-7.324,0
1540168298.573,30.762,19.531,19.043,31.250,1.465,0
1540168298.577,31.738,18.555,22.949,33.691,36.621,0
1540168298.580,31.250,20.996,23.438,38.574,17.578,0
1540168298.584,30.273,21.973,22.949,41.992,50.781,0
1540168298.588,31.250,22.461,27.832,40.527,27.344,0
1540168298.592,28.809,21.484,32.715,28.320,-13.672,0
1540168298.596,21.484,20.996,29.785,28.320,-10.742,0
1540168298.600,20.996,22.461,21.973,32.715,42.969,0
1540168298.604,26.367,20.996,20.508,25.879,53.223,0
1540168298.608,27.832,23.438,20.996,24.902,63.477,0
1540168298.612,23.438,24.902,20.020,28.809,63.477,0
1540168298.616,18.066,22.461,23.438,26.367,16.113,0
1540168298.620,16.602,25.391,29.297,26.855,16.113,0
1540168298.623,17.090,26.855,27.832,29.785,40.527,0
1540168298.627,20.508,25.391,19.043,29.297,1.465,0
1540168298.631,25.391,23.926,9.766,33.691,21.484,0
1540168298.635,29.785,27.832,14.648,33.691,54.688,0
1540168298.639,34.668,28.809,15.625,28.809,2.930,0
1540168298.643,34.180,25.391,19.531,26.855,88.867,0
1540168298.647,25.879,23.438,26.367,22.949,76.172,0
1540168298.651,25.879,24.414,26.855,25.879,-18.555,0
1540168298.655,33.691,27.344,33.203,31.738,-9.277,0
1540168298.659,34.180,30.762,37.598,27.832,6.836,0
1540168298.663,28.809,30.273,32.715,26.855,32.227,0
1540168298.666,25.879,29.785,25.879,30.762,23.438,0
1540168298.670,27.832,28.809,30.273,30.273,17.578,0
1540168298.674,36.133,27.344,22.949,31.738,29.785,0
1540168298.678,36.621,28.809,14.648,36.133,-12.695,0
1540168298.682,27.344,29.785,28.320,31.250,6.836,0
1540168298.686,20.996,29.785,37.598,24.414,41.016,0
1540168298.690,26.855,30.273,32.715,19.531,27.832,0
1540168298.694,28.809,29.785,27.832,17.578,67.383,0
1540168298.698,29.297,31.250,31.738,24.902,135.254,0
1540168298.702,30.273,28.320,27.832,28.320,98.145,0
1540168298.705,27.344,26.367,23.926,19.531,54.688,0
1540168298.709,25.879,26.855,27.832,17.090,91.309,0
1540168298.713,22.461,29.297,24.902,26.367,72.266,0
1540168298.717,20.508,29.785,25.879,30.762,12.695,0
1540168298.721,20.020,26.855,29.297,27.832,45.898,0
1540168298.725,23.438,24.902,24.414,26.367,60.059,0
1540168298.729,26.367,28.809,27.344,31.250,20.508,0
1540168298.733,29.297,31.250,36.133,40.039,32.227,0
1540168298.737,28.809,30.762,32.715,41.504,42.969,0
1540168298.741,33.691,29.785,29.297,35.645,28.320,0
1540168298.745,37.598,29.297,26.367,38.574,39.551,0
1540168298.748,36.133,28.320,28.320,42.969,45.898,0
1540168298.752,36.621,29.785,39.551,39.551,27.832,0
1540168298.756,40.527,30.273,41.992,36.621,42.969,0
1540168298.760,38.574,30.762,41.992,37.598,76.172,0
1540168298.764,36.621,32.715,35.645,35.645,4.883,0
1540168298.768,35.156,31.250,24.414,34.668,-58.105,0
1540168298.772,33.203,30.273,33.691,33.203,31.250,0
1540168298.776,28.320,31.738,36.133,32.715,27.832,0
1540168298.780,16.113,30.762,36.133,25.391,44.434,0
1540168298.784,12.207,27.832,39.062,16.602,47.852,0
1540168298.788,11.230,24.414,34.180,16.602,51.758,0
1540168298.791,15.625,28.320,29.297,20.020,82.031,0
1540168298.795,18.555,28.809,31.250,24.902,15.137,0
1540168298.799,15.137,25.391,32.715,28.320,-11.230,0
1540168298.803,20.020,29.297,29.297,27.832,63.965,0
1540168298.807,32.715,32.715,28.809,24.414,75.195,1
1540168298.811,28.320,29.297,27.832,21.973,54.199,0
1540168298.815,21.973,31.250,23.926,24.414,29.785,0
1540168298.819,21.973,33.691,25.391,30.273,-39.062,0
1540168298.823,20.996,30.762,29.785,25.879,-13.672,0
1540168298.827,18.066,25.391,27.344,19.531,56.152,0
1540168298.830,18.555,27.832,24.414,21.484,26.367,0
1540168298.834,18.066,31.738,23.926,23.926,-36.621,0
1540168298.838,19.043,28.320,20.508,21.973,13.672,0
