timestamps,TP9,AF7,AF8,TP10,Right AUX,Marker
1540168460.717,23.926,19.043,35.156,21.973,87.402,0
1540168460.721,15.625,25.879,30.762,13.672,21.484,0
1540168460.725,19.043,30.273,36.621,8.789,23.926,0
1540168460.729,21.973,26.855,35.645,20.996,47.363,0
1540168460.733,23.438,20.996,29.785,33.691,-41.504,0
1540168460.737,38.086,21.484,32.227,33.203,8.301,0
1540168460.741,38.086,23.926,32.715,30.273,27.344,0
1540168460.745,29.297,23.926,32.227,38.086,-17.090,0
1540168460.748,34.668,18.066,34.668,47.363,13.184,0
1540168460.752,42.480,18.066,31.250,44.434,30.762,0
1540168460.756,39.551,16.602,28.809,41.992,-21.973,0
1540168460.760,37.109,17.578,35.645,41.504,-42.969,0
1540168460.764,29.297,28.809,36.133,34.180,3.906,0
1540168460.768,15.137,26.855,35.156,17.578,32.715,0
1540168460.772,14.648,32.227,37.109,14.648,49.316,0
1540168460.776,14.160,38.086,35.645,12.207,10.742,0
1540168460.780,14.160,29.785,28.320,14.648,-20.020,0
1540168460.784,21.973,25.391,19.531,33.691,12.695,0
1540168460.788,18.066,17.578,20.020,31.738,30.762,0
1540168460.791,9.766,-3.418,33.691,9.277,20.020,0
1540168460.795,8.789,3.418,46.387,4.395,0.977,0
1540168460.799,18.066,35.645,41.016,16.113,41.016,0
1540168460.803,20.996,21.484,30.273,19.531,52.246,0
1540168460.807,20.996,8.789,32.227,19.043,9.277,0
1540168460.811,27.344,22.949,34.180,19.043,90.332,0
1540168460.815,34.180,14.160,31.738,20.508,100.098,0
1540168460.819,33.203,-8.789,27.344,31.738,27.344,0
1540168460.823,38.086,20.996,27.344,28.809,62.012,0
1540168460.827,43.457,53.711,34.668,21.973,98.145,0
1540168460.830,37.109,36.621,38.574,34.668,70.312,0
1540168460.834,29.785,30.273,34.180,41.504,6.348,0
1540168460.838,21.973,25.391,30.273,32.227,-11.719,0
1540168460.842,20.020,25.879,39.062,30.273,21.484,0
1540168460.846,20.508,28.809,34.668,24.414,41.992,0
1540168460.850,32.715,8.789,29.297,23.438,21.484,0
1540168460.854,43.457,-7.812,36.621,29.785,-7.812,0
1540168460.858,35.156,17.090,37.109,20.020,-9.277,0
1540168460.862,29.297,40.527,29.785,20.508,41.992,0
1540168460.866,35.645,30.273,31.738,31.738,69.336,0
1540168460.870,36.133,24.414,33.691,41.016,5.859,0
1540168460.873,32.227,34.180,30.762,34.180,6.836,2
1540168460.877,39.062,47.363,29.785,21.973,84.961,0
1540168460.881,36.133,42.480,25.391,24.414,95.703,0
1540168460.885,25.879,30.762,27.832,26.367,49.805,0
1540168460.889,32.227,24.414,31.250,13.184,19.531,0
1540168460.893,38.574,20.508,33.203,24.414,11.719,0
1540168460.897,37.598,20.508,36.621,44.434,-13.184,0
1540168460.901,38.574,21.484,31.250,38.574,12.695,0
1540168460.905,43.457,24.414,24.902,29.297,67.383,0
1540168460.909,45.898,20.508,21.484,22.461,76.660,0
1540168460.913,40.527,23.926,28.809,28.320,35.156,0
1540168460.916,34.668,29.785,33.203,20.996,-5.371,0
1540168460.920,35.156,25.391,35.156,20.020,24.414,0
1540168460.924,44.434,23.926,37.109,43.945,49.316,0
1540168460.928,39.062,26.367,35.156,30.762,38.086,0
1540168460.932,34.180,25.879,38.086,13.672,33.203,0
1540168460.936,36.621,20.508,35.156,24.902,31.738,0
1540168460.940,32.227,18.066,31.738,31.250,17.090,0
1540168460.944,22.461,20.020,32.715,36.133,50.781,0
1540168460.948,19.043,22.461,35.156,33.203,70.312,0
1540168460.952,27.344,21.484,36.133,34.180,42.969,0
1540168460.955,25.879,19.043,30.273,38.086,68.848,0
1540168460.959,18.555,21.484,28.809,24.902,73.242,0
1540168460.963,12.695,20.996,26.367,24.902,25.391,0
1540168460.967,18.555,21.973,25.391,35.156,11.230,0
1540168460.971,19.531,21.973,27.832,35.156,-26.367,0
1540168460.975,24.414,21.973,27.832,32.715,-47.852,0
1540168460.979,28.809,18.066,29.297,29.297,41.992,0
1540168460.983,21.484,13.184,33.691,26.367,42.969,0
1540168460.987,20.996,22.461,39.551,36.133,10.254,0
1540168460.991,24.414,10.742,33.691,31.738,8.301,0
1540168460.995,23.926,-1.953,24.414,24.902,11.719,0
1540168460.998,22.461,22.949,27.344,30.762,42.969,0
1540168461.002,25.879,35.645,37.598,31.250,21.973,0
1540168461.006,29.785,26.367,37.109,27.344,34.180,0
1540168461.010,25.391,28.809,35.645,30.762,53.711,0
1540168461.014,26.367,30.762,39.551,29.297,25.391,0
1540168461.018,35.156,22.461,23.438,23.926,16.113,0
1540168461.022,40.527,12.695,12.695,22.949,46.387,0
1540168461.026,40.527,10.742,20.020,18.066,41.992,0
1540168461.030,45.410,31.250,25.879,22.949,32.227,0
1540168461.034,46.875,36.621,27.344,25.879,40.039,0
1540168461.038,50.293,27.344,35.645,20.508,17.578,0
1540168461.041,51.270,28.320,41.504,16.113,-38.086,0
1540168461.045,43.457,24.414,37.109,23.438,21.484,0
1540168461.049,46.387,5.371,30.273,30.273,86.426,0
1540168461.053,36.621,11.230,29.785,28.320,29.785,0
1540168461.057,28.320,41.016,26.855,32.227,8.301,0
1540168461.061,27.832,47.852,24.414,28.809,-22.949,0
1540168461.065,8.789,38.086,32.715,15.625,51.270,0
1540168461.069,-0.977,30.762,39.062,5.859,96.191,0
1540168461.073,12.207,18.066,39.062,21.484,22.949,0
1540168461.077,25.879,22.949,36.133,27.344,-6.836,0
1540168461.080,17.090,32.715,32.227,16.602,-39.551,0
1540168461.084,5.371,7.812,27.832,19.043,2.930,0
1540168461.088,15.625,1.465,26.367,24.414,-3.906,0
1540168461.092,22.949,21.973,31.250,20.508,31.250,0
1540168461.096,17.090,25.391,34.668,20.508,87.402,0
1540168461.100,16.602,18.066,34.668,25.879,76.660,0
1540168461.104,16.113,15.625,32.715,21.484,33.691,0
1540168461.108,18.555,20.020,32.227,21.973,-5.859,0
1540168461.112,20.508,20.020,30.762,24.414,-19.531,0
1540168461.116,23.438,17.578,25.391,28.809,-59.082,0
1540168461.120,30.273,18.555,26.855,20.020,-35.156,0
1540168461.123,24.414,16.113,26.855,17.090,76.172,0
1540168461.127,19.043,8.301,26.367,26.367,57.129,0
1540168461.131,15.625,17.578,28.320,26.855,-1.465,0
1540168461.135,7.324,32.715,25.391,26.855,67.871,0
1540168461.139,12.207,29.297,21.973,28.809,93.262,0
1540168461.143,18.066,30.273,26.367,26.367,81.055,0
1540168461.147,13.184,34.180,35.156,17.090,69.336,0
1540168461.151,9.766,36.621,36.133,16.602,-13.672,0
1540168461.155,11.230,24.902,31.250,17.090,9.766,0
1540168461.159,19.531,20.996,27.832,8.301,65.918,0
1540168461.163,22.461,28.320,27.832,14.648,76.660,0
1540168461.166,20.020,25.879,29.785,14.648,61.035,0
1540168461.170,23.926,24.414,24.902,12.695,25.391,0
1540168461.174,24.414,20.508,17.090,16.113,27.344,0
1540168461.178,21.973,21.484,22.461,20.508,36.133,0
1540168461.182,19.043,22.949,32.227,32.715,-8.301,0
1540168461.186,20.996,20.020,31.738,27.344,-23.926,0
1540168461.190,26.855,20.996,27.832,18.555,-0.488,0
1540168461.194,29.785,24.902,21.973,24.414,-8.789,0
1540168461.198,28.320,24.414,20.508,28.320,48.340,0
1540168461.202,19.531,15.137,28.320,29.785,78.125,0
1540168461.205,20.996,12.207,36.133,26.367,40.039,0
1540168461.209,26.367,16.602,29.297,16.602,-9.766,0
1540168461.213,19.531,19.531,23.438,20.020,18.555,0
1540168461.217,23.438,20.020,26.367,26.855,22.949,0
1540168461.221,35.156,22.461,28.320,30.762,44.434,0
1540168461.225,36.133,22.461,29.785,22.949,73.730,0
1540168461.229,34.180,19.531,31.738,21.973,46.875,0
1540168461.233,33.203,23.926,32.715,20.020,16.602,0
1540168461.237,23.926,28.320,29.785,13.184,-10.254,0
1540168461.241,29.785,27.832,23.926,14.160,11.230,0
1540168461.245,39.551,29.297,24.414,18.066,-18.066,0
1540168461.248,33.691,25.879,27.832,19.531,-58.594,0
1540168461.252,31.738,23.926,28.809,33.691,18.066,0
1540168461.256,29.297,25.879,28.809,25.879,70.312,0
1540168461.260,27.832,26.367,24.902,9.766,33.203,0
1540168461.264,32.715,25.879,24.902,21.973,8.301,0
1540168461.268,38.574,23.438,28.320,26.367,50.781,0
1540168461.272,43.945,23.926,24.902,29.785,25.391,0
1540168461.276,48.340,30.762,20.996,30.273,4.883,0
1540168461.280,51.270,34.180,24.414,36.621,24.902,0
1540168461.284,45.410,33.203,29.297,39.062,-0.977,0
1540168461.288,41.992,28.809,31.250,40.039,12.207,0
1540168461.291,45.898,24.414,32.715,39.551,11.230,0
1540168461.295,45.410,25.391,24.902,33.691,-5.371,0
1540168461.299,39.062,23.438,16.602,38.086,5.859,0
1540168461.303,37.598,20.508,19.531,41.992,64.453,0
1540168461.307,40.039,20.996,24.902,37.598,58.105,0
1540168461.311,42.480,20.020,32.715,33.203,41.504,0
1540168461.315,41.992,23.926,36.133,32.227,53.711,0
1540168461.319,30.762,27.832,30.762,39.551,62.500,0
1540168461.323,24.414,23.438,28.809,35.645,6.348,0
1540168461.327,28.809,20.508,30.273,34.180,2.441,0
1540168461.330,27.344,24.902,31.738,38.574,61.035,0
1540168461.334,27.344,23.926,32.715,34.668,86.426,0
1540168461.338,26.855,21.484,28.809,36.133,56.152,0
1540168461.342,29.785,20.020,28.320,37.109,13.184,0
1540168461.346,29.785,18.066,29.785,35.645,48.340,0
1540168461.350,28.320,18.555,27.832,39.062,57.617,0
1540168461.354,26.367,15.137,24.902,33.691,-13.672,0
1540168461.358,28.320,11.230,19.531,25.879,36.133,0
1540168461.362,34.668,19.043,13.672,39.551,7.324,0
1540168461.366,38.086,25.879,19.043,52.246,-21.484,0
1540168461.370,36.133,24.902,27.344,51.758,75.684,0
1540168461.373,32.227,22.461,29.297,45.410,65.430,0
1540168461.377,28.809,20.508,23.926,34.668,40.527,0
1540168461.381,36.133,17.578,21.973,26.855,45.410,0
1540168461.385,38.574,14.648,29.785,28.809,-17.090,0
1540168461.389,32.227,14.648,30.273,37.598,-26.855,0
1540168461.393,36.133,20.996,24.902,41.992,13.672,0
1540168461.397,40.527,23.926,24.902,41.504,29.297,0
1540168461.401,44.922,21.973,23.926,30.762,36.133,0
1540168461.405,44.434,24.414,22.461,32.715,15.625,0
1540168461.409,35.156,21.973,25.879,27.344,32.715,0
1540168461.413,28.809,15.137,31.250,23.926,47.852,0
1540168461.416,24.902,15.625,32.715,36.133,66.406,0
1540168461.420,24.414,20.020,31.738,33.203,53.223,0
1540168461.424,34.668,22.949,32.227,37.598,-10.742,0
1540168461.428,37.598,22.949,30.273,38.086,5.859,0
1540168461.432,35.156,21.973,32.715,29.297,57.617,0
1540168461.436,41.016,21.484,31.250,33.691,57.129,0
1540168461.440,41.016,21.484,24.902,38.086,28.809,0
1540168461.444,40.527,21.973,26.855,34.668,-9.277,0
1540168461.448,41.504,22.949,30.273,30.273,20.996,0
1540168461.452,33.691,21.973,31.738,28.320,43.457,0
1540168461.455,38.086,20.996,32.715,36.621,50.781,0
1540168461.459,43.945,17.578,35.645,35.156,3.906,0
1540168461.463,33.691,17.090,37.109,32.715,5.371,0
1540168461.467,31.738,20.020,33.203,49.805,31.738,0
1540168461.471,36.621,22.461,26.855,46.387,70.801,0
1540168461.475,36.133,21.484,29.297,37.109,63.477,0
1540168461.479,32.227,21.484,35.156,26.367,40.039,0
1540168461.483,33.203,21.484,33.691,24.414,10.254,0
1540168461.487,35.645,21.484,33.203,41.016,17.090,0
1540168461.491,34.180,24.902,34.668,23.926,37.109,0
1540168461.495,31.250,21.973,36.133,6.348,24.902,0
1540168461.498,31.250,20.508,37.109,17.090,-18.066,0
1540168461.502,28.320,23.438,35.156,15.625,-31.250,0
1540168461.506,30.273,25.391,24.902,6.836,-9.277,0
1540168461.510,31.250,23.926,28.320,20.020,29.785,0
1540168461.514,25.391,21.484,35.645,39.551,42.480,0
1540168461.518,31.250,20.508,37.109,38.086,0.977,0
1540168461.522,30.273,23.438,38.574,27.832,-4.883,0
1540168461.526,21.484,29.785,38.086,30.273,-22.949,0
1540168461.530,18.555,32.715,28.809,23.926,-55.176,0
1540168461.534,22.949,30.273,26.367,23.438,-35.156,0
1540168461.538,22.949,24.902,39.062,17.578,36.133,0
1540168461.541,21.484,23.438,39.062,13.184,56.152,0
1540168461.545,20.508,24.902,36.621,25.879,48.828,0
1540168461.549,20.020,24.414,38.574,29.297,109.375,0
1540168461.553,17.090,23.438,35.645,23.926,105.469,0
1540168461.557,20.996,23.438,36.133,31.738,10.742,0
1540168461.561,26.855,24.414,38.086,24.414,34.668,0
1540168461.565,24.414,21.484,36.133,18.555,31.250,0
1540168461.569,24.414,21.484,35.156,27.344,-29.785,0
1540168461.573,23.926,22.461,31.738,19.043,25.879,0
1540168461.577,29.297,20.020,33.691,29.297,69.824,0
1540168461.580,33.203,19.043,36.133,41.504,100.586,0
1540168461.584,21.973,20.508,33.203,21.484,82.031,0
1540168461.588,14.648,21.484,36.621,8.301,77.148,0
1540168461.592,21.973,21.973,41.504,8.789,20.996,0
1540168461.596,29.785,26.367,39.551,13.184,-7.812,0
1540168461.600,26.855,28.320,37.598,21.973,52.734,0
1540168461.604,22.949,26.855,34.668,29.297,90.820,0
1540168461.608,27.832,26.855,33.691,23.438,95.215,1
1540168461.612,25.879,28.320,36.133,27.832,29.785,0
1540168461.616,24.414,28.320,36.621,45.410,-17.090,0
1540168461.620,23.438,28.320,33.203,39.551,2.441,0
1540168461.623,24.414,27.832,31.738,23.438,-6.836,0
1540168461.627,25.879,27.344,36.621,25.879,37.598,0
1540168461.631,27.344,29.785,38.574,40.039,51.758,0
1540168461.635,27.832,28.809,40.039,25.391,53.711,0
1540168461.639,21.973,24.902,37.109,16.602,57.617,0
1540168461.643,25.391,29.785,36.621,24.414,32.227,0
1540168461.647,29.785,32.715,35.156,32.227,-11.230,0
1540168461.651,29.297,29.297,29.297,41.016,-18.555,0
1540168461.655,26.367,27.344,32.227,36.133,33.203,0
1540168461.659,34.668,27.344,34.180,21.973,44.922,0
1540168461.663,35.156,30.273,31.738,22.949,28.320,0
1540168461.666,33.203,34.668,34.668,41.504,45.898,0
1540168461.670,34.180,35.156,37.598,39.062,44.434,0
1540168461.674,33.691,29.297,21.484,21.484,25.879,0
1540168461.678,35.645,25.391,20.020,23.926,44.922,0
1540168461.682,35.156,26.855,34.180,28.320,32.715,0
1540168461.686,32.227,28.320,35.645,33.691,-19.043,0
1540168461.690,34.668,26.367,33.203,37.598,45.898,0
1540168461.694,35.156,20.996,34.180,29.297,56.641,0
1540168461.698,35.645,21.484,35.156,34.180,50.781,0
1540168461.702,35.645,24.902,31.738,34.180,114.746,0
1540168461.705,32.715,25.391,28.320,21.484,52.246,0
1540168461.709,35.156,28.320,28.809,28.320,-63.477,0
1540168461.713,31.738,26.855,26.855,34.668,-52.246,0
1540168461.717,24.902,24.902,30.762,25.879,-1.465,0
1540168461.721,27.344,27.344,41.504,21.973,-23.926,0
1540168461.725,31.250,29.297,33.691,19.531,-18.066,0
1540168461.729,31.738,28.809,21.484,27.832,-10.254,0
1540168461.733,28.320,28.809,24.414,30.762,73.242,0
1540168461.737,27.344,24.902,31.250,26.855,71.777,0
1540168461.741,24.414,22.949,31.250,23.926,44.922,0
1540168461.745,16.113,23.438,30.273,17.090,50.293,0
1540168461.748,19.531,23.926,30.273,19.043,1.953,0
1540168461.752,19.043,24.902,28.320,19.531,-19.043,0
1540168461.756,15.625,26.367,26.367,12.207,-22.949,0
1540168461.760,14.160,21.973,23.926,7.324,-21.484,0
1540168461.764,18.066,22.461,18.555,11.230,-40.039,0
1540168461.768,24.902,29.297,27.344,30.762,14.160,0
1540168461.772,26.855,28.809,29.785,33.691,59.082,0
1540168461.776,33.203,28.809,27.832,19.043,1.465,0
1540168461.780,24.902,28.809,28.809,24.414,-49.805,0
1540168461.784,6.348,25.879,29.785,18.555,-8.789,0
1540168461.788,-0.977,23.926,29.785,0.977,30.762,0
1540168461.791,7.324,23.926,28.320,5.371,66.406,0
1540168461.795,5.859,21.484,28.320,9.277,83.496,0
1540168461.799,6.348,18.555,27.832,5.859,32.227,0
1540168461.803,11.230,20.508,24.902,10.742,57.129,0
1540168461.807,15.137,21.484,20.020,9.766,66.895,0
1540168461.811,18.066,20.996,20.996,10.254,14.648,0
1540168461.815,18.066,20.996,23.926,17.090,1.465,0
1540168461.819,23.926,23.438,25.391,26.855,-16.113,0
1540168461.823,30.762,25.391,22.461,21.484,-47.852,0
1540168461.827,33.691,25.391,21.973,12.695,-40.527,0
1540168461.830,38.086,23.438,20.508,29.297,63.965,0
1540168461.834,46.387,25.879,24.414,24.414,72.266,0
1540168461.838,49.316,31.738,24.902,3.418,29.785,0
1540168461.842,48.340,32.715,20.996,10.254,48.340,0
1540168461.846,44.922,27.832,23.438,16.113,40.527,0
1540168461.850,40.039,26.855,27.344,11.719,43.457,0
1540168461.854,32.715,26.855,33.203,19.531,10.254,0
1540168461.858,25.879,24.902,37.109,32.227,-19.043,0
1540168461.862,26.855,26.367,33.691,38.574,-11.230,0
1540168461.866,29.785,28.320,29.785,37.109,-7.324,0
1540168461.870,31.250,29.785,34.180,40.527,28.320,0
1540168461.873,32.227,29.297,35.156,42.480,79.102,0
1540168461.877,36.133,28.320,27.344,33.691,24.902,0
1540168461.881,33.203,29.785,27.832,29.785,-5.859,0
1540168461.885,31.250,28.809,33.203,28.809,87.402,0
1540168461.889,36.621,27.344,29.785,32.227,58.594,0
1540168461.893,28.320,23.926,32.227,37.598,0.000,0
1540168461.897,27.832,27.344,40.039,31.738,31.738,0
1540168461.901,42.480,33.691,36.133,31.738,27.344,0
1540168461.905,32.227,29.297,29.297,27.344,-23.438,0
1540168461.909,20.020,24.902,28.320,20.020,35.156,0
1540168461.913,21.973,24.902,27.344,15.625,70.312,0
1540168461.916,20.020,25.391,29.785,20.508,43.945,0
1540168461.920,12.695,26.367,32.227,26.367,68.848,0
1540168461.924,21.484,29.297,35.645,22.461,63.477,0
1540168461.928,31.738,30.273,34.668,26.855,27.344,0
1540168461.932,36.133,30.273,35.645,31.250,20.996,0
1540168461.936,41.504,32.227,35.645,26.367,27.832,0
1540168461.940,35.156,31.738,23.926,13.672,75.684,0
1540168461.944,23.926,28.320,24.414,15.137,82.520,0
1540168461.948,19.043,25.391,29.297,21.484,47.852,0
1540168461.952,21.973,23.438,29.297,20.508,30.273,0
1540168461.955,25.879,22.949,29.785,25.879,20.020,0
1540168461.959,28.320,21.973,26.855,25.391,1.953,0
1540168461.963,27.344,22.949,23.926,23.926,20.020,0
1540168461.967,22.949,21.973,22.461,20.996,52.734,0
1540168461.971,31.250,23.438,27.344,15.625,38.086,0
1540168461.975,35.645,27.344,32.227,23.926,8.789,0
1540168461.979,27.832,24.414,33.203,29.297,23.438,0
1540168461.983,28.809,23.926,28.809,26.367,5.859,0
1540168461.987,32.715,26.855,23.926,23.438,-42.969,0
1540168461.991,32.715,26.367,25.879,17.090,-12.695,0
1540168461.995,28.809,28.809,28.320,22.461,48.828,0
1540168461.998,29.297,27.832,22.461,29.297,45.898,0
1540168462.002,34.180,24.902,24.902,35.645,25.879,0
1540168462.006,44.434,25.879,28.320,31.250,39.062,0
1540168462.010,47.852,26.367,25.391,28.809,3.906,0
1540168462.014,39.551,21.973,27.832,28.320,7.812,0
1540168462.018,38.086,20.508,29.297,21.973,45.410,0
1540168462.022,41.504,20.508,27.344,23.438,1.953,0
1540168462.026,41.504,18.066,31.738,16.602,17.090,0
1540168462.030,32.715,22.949,30.273,18.555,32.715,0
1540168462.034,28.809,24.414,26.367,28.320,48.828,0
1540168462.038,35.156,22.461,23.438,26.855,44.922,0
1540168462.041,36.621,23.926,24.414,19.531,29.785,0
1540168462.045,31.738,23.926,32.227,17.090,20.508,0
1540168462.049,31.738,23.438,33.203,21.484,-2.930,0
1540168462.053,30.273,24.414,32.715,25.879,2.930,0
1540168462.057,29.297,26.367,31.738,31.250,51.270,0
1540168462.061,30.273,25.879,31.738,39.062,97.168,0
1540168462.065,30.762,23.926,27.832,26.367,61.035,0
1540168462.069,26.367,22.949,24.902,16.113,46.875,0
1540168462.073,26.855,24.902,27.344,27.832,27.344,0
1540168462.077,34.180,26.367,26.855,27.832,40.527,0
1540168462.080,34.668,26.367,22.461,20.020,6.836,0
1540168462.084,30.273,25.879,23.926,22.461,-22.461,0
1540168462.088,27.344,24.414,28.320,18.555,7.812,0
1540168462.092,31.250,24.902,33.203,20.508,14.648,0
1540168462.096,24.414,21.484,34.668,21.484,14.648,0
1540168462.100,22.949,21.973,28.809,24.414,62.988,0
1540168462.104,25.879,23.926,29.785,40.039,60.059,0
1540168462.108,18.066,24.902,32.227,24.902,21.484,0
1540168462.112,15.137,27.344,33.203,14.160,29.297,0
1540168462.116,19.043,26.367,32.227,29.297,81.055,0
1540168462.120,18.555,26.367,31.738,23.926,51.270,0
1540168462.123,18.066,25.391,31.250,18.555,-8.301,0
1540168462.127,24.902,24.414,33.691,25.879,19.531,0
1540168462.131,24.902,26.367,34.668,34.668,1.465,0
1540168462.135,26.367,28.320,30.762,37.109,38.574,1
1540168462.139,28.809,28.809,32.715,32.227,30.273,0
1540168462.143,24.902,27.344,38.086,34.668,-55.664,0
1540168462.147,27.344,27.344,33.691,38.086,21.973,0
1540168462.151,28.320,25.391,28.320,33.691,51.758,0
1540168462.155,19.043,28.320,31.738,29.785,10.254,0
1540168462.159,20.020,34.668,31.250,30.762,-11.230,0
1540168462.163,21.484,33.691,33.203,33.203,-5.371,0
1540168462.166,19.531,31.250,34.668,32.227,72.266,0
1540168462.170,24.902,29.297,34.180,34.180,39.551,0
1540168462.174,28.320,26.855,32.227,34.180,31.738,0
1540168462.178,20.996,27.832,31.738,27.344,49.805,0
1540168462.182,17.578,30.762,31.250,21.484,46.387,0
1540168462.186,16.602,28.320,31.738,24.902,68.848,0
1540168462.190,18.066,25.879,33.691,32.227,41.016,0
1540168462.194,20.508,28.809,29.785,25.391,27.344,0
1540168462.198,17.090,27.832,25.879,18.555,30.762,0
1540168462.202,20.020,24.902,28.320,20.996,32.227,0
1540168462.205,20.508,26.855,30.273,20.996,-23.438,0
1540168462.209,17.090,26.855,23.926,21.484,-22.461,0
1540168462.213,16.113,22.949,19.043,15.625,31.250,0
1540168462.217,17.090,23.438,22.461,15.625,47.363,0
1540168462.221,21.973,30.273,23.926,16.602,22.461,0
1540168462.225,25.391,29.297,24.902,9.766,7.324,0
1540168462.229,21.973,26.855,23.438,26.367,26.367,0
1540168462.233,19.531,26.855,23.926,30.273,34.180,0
1540168462.237,20.508,26.367,23.438,22.461,60.059,0
1540168462.241,24.414,27.832,23.926,19.531,31.250,0
1540168462.245,24.414,28.320,27.832,16.602,54.688,0
1540168462.248,19.043,29.297,31.738,25.879,40.527,0
1540168462.252,22.949,28.809,34.668,31.250,34.668,0
1540168462.256,26.855,25.879,31.250,26.367,78.125,0
1540168462.260,24.414,28.320,28.320,22.461,58.594,0
1540168462.264,21.973,27.832,28.809,21.484,43.945,0
1540168462.268,26.855,25.879,28.320,19.043,21.484,0
1540168462.272,30.762,24.902,27.344,21.484,31.738,0
1540168462.276,34.180,24.902,27.832,28.320,61.523,0
1540168462.280,33.203,29.785,31.250,33.203,51.758,0
1540168462.284,35.156,34.668,33.691,42.969,21.484,0
1540168462.288,35.645,37.598,30.273,36.621,31.738,0
1540168462.291,35.645,38.574,26.855,24.902,61.523,0
1540168462.295,32.715,36.621,26.367,24.902,5.371,0
1540168462.299,28.809,33.203,24.902,20.020,19.043,0
1540168462.303,25.879,29.785,25.879,24.414,26.367,0
1540168462.307,35.156,28.809,27.344,25.391,-10.254,0
1540168462.311,36.621,29.297,24.902,17.578,-20.020,0
1540168462.315,32.227,30.273,23.926,23.438,-17.090,0
1540168462.319,36.621,31.250,22.949,33.691,18.555,0
1540168462.323,39.062,34.668,22.461,32.227,4.883,0
1540168462.327,43.945,34.668,25.391,33.691,20.020,0
1540168462.330,45.898,32.227,20.020,43.945,80.566,0
1540168462.334,43.457,34.668,20.508,41.992,41.504,0
1540168462.338,36.621,22.949,31.738,36.133,39.551,0
1540168462.342,33.691,17.578,39.062,33.203,52.734,0
1540168462.346,31.738,25.391,38.086,31.250,74.707,0
1540168462.350,25.391,27.344,32.715,34.180,59.082,0
1540168462.354,22.949,27.832,33.203,32.227,-10.254,0
1540168462.358,23.438,28.809,31.738,25.391,5.371,0
1540168462.362,24.902,30.762,31.738,31.738,54.688,0
1540168462.366,24.414,30.762,33.691,32.715,63.965,0
1540168462.370,25.391,29.297,32.715,26.367,62.012,0
1540168462.373,28.320,25.391,31.738,28.320,25.879,0
1540168462.377,31.738,23.438,35.156,35.156,42.480,0
1540168462.381,35.645,27.344,33.203,38.086,95.215,0
1540168462.385,34.180,28.320,30.762,33.691,37.598,0
1540168462.389,34.668,28.809,32.715,28.809,-34.180,0
1540168462.393,37.598,31.250,29.297,33.203,14.648,0
1540168462.397,34.668,30.273,25.391,28.320,12.207,0
1540168462.401,32.227,31.250,29.297,24.902,-12.207,0
1540168462.405,28.809,32.715,27.832,27.344,22.949,0
1540168462.409,32.227,30.273,29.785,34.180,77.637,0
1540168462.413,31.250,29.785,36.133,37.598,72.754,0
1540168462.416,27.344,28.809,35.645,30.762,-11.230,0
1540168462.420,24.414,28.320,31.250,22.461,-19.043,0
1540168462.424,23.926,26.855,25.879,19.043,-7.812,0
1540168462.428,26.855,24.902,24.414,20.020,-61.523,0
1540168462.432,25.391,23.926,23.926,23.438,-33.691,0
1540168462.436,25.879,25.391,23.438,20.508,53.223,0
1540168462.440,22.949,27.344,22.461,18.066,26.367,0
1540168462.444,22.949,28.809,21.484,22.461,23.926,0
1540168462.448,23.926,29.785,22.461,11.230,45.898,0
1540168462.452,15.137,31.250,25.879,20.020,60.059,0
1540168462.455,11.230,28.809,22.461,18.555,64.453,0
1540168462.459,15.137,27.832,21.484,7.324,-9.766,0
1540168462.463,19.043,28.320,35.156,19.043,7.812,0
1540168462.467,17.090,25.391,39.551,20.020,73.242,0
1540168462.471,15.625,26.367,32.227,15.137,35.156,0
1540168462.475,20.996,27.832,26.367,15.625,2.930,0
1540168462.479,20.996,31.738,25.879,19.531,9.277,0
1540168462.483,20.508,33.203,35.156,25.879,-14.648,0
1540168462.487,16.113,26.367,33.691,22.461,37.598,0
1540168462.491,14.648,25.879,27.344,21.973,60.059,0
1540168462.495,18.066,28.320,31.738,26.855,12.207,0
1540168462.498,19.043,25.879,28.809,28.320,15.137,0
1540168462.502,15.625,22.461,25.879,28.320,35.645,0
1540168462.506,18.066,24.902,32.715,23.438,0.977,0
1540168462.510,21.973,25.879,30.273,18.555,21.973,0
1540168462.514,23.926,25.391,29.297,19.531,75.195,0
1540168462.518,25.391,24.414,33.203,22.461,62.988,0
1540168462.522,26.855,24.902,32.227,19.531,32.715,0
1540168462.526,28.809,25.879,27.832,20.020,-5.859,0
1540168462.530,30.762,25.391,30.273,25.391,-5.371,0
1540168462.534,30.762,27.832,36.621,30.762,36.133,0
1540168462.538,23.926,29.297,36.133,28.320,-3.418,0
1540168462.541,23.926,24.902,28.320,22.461,-41.504,0
1540168462.545,23.926,24.902,32.227,27.344,22.461,0
1540168462.549,20.996,27.344,37.109,26.855,43.945,0
1540168462.553,20.020,26.855,29.297,29.785,-14.160,0
1540168462.557,20.996,27.344,30.273,26.855,-45.898,0
1540168462.561,20.996,25.391,31.250,18.066,-13.184,0
1540168462.565,17.578,25.391,32.715,20.508,-0.488,0
1540168462.569,17.090,27.344,34.668,26.367,-21.484,0
1540168462.573,20.996,26.367,27.344,21.484,18.555,0
1540168462.577,20.996,22.949,30.273,20.020,28.320,0
1540168462.580,15.137,23.926,34.668,35.156,67.871,0
1540168462.584,12.695,26.855,33.691,32.227,80.566,0
1540168462.588,16.113,24.902,32.227,27.832,-25.879,0
1540168462.592,27.832,26.855,29.785,22.949,-6.836,0
1540168462.596,30.762,30.762,32.227,22.461,13.672,0
1540168462.600,23.926,29.785,32.715,27.344,31.738,0
1540168462.604,23.438,29.785,30.762,31.250,45.410,0
1540168462.608,25.391,32.715,33.203,30.273,24.902,0
1540168462.612,29.785,34.180,33.691,27.832,70.312,0
1540168462.616,30.273,30.762,32.227,31.738,45.898,0
1540168462.620,23.926,26.855,34.668,24.414,1.465,0
1540168462.623,27.832,29.297,37.598,26.367,18.555,0
1540168462.627,29.297,28.809,35.156,29.785,85.449,0
1540168462.631,25.391,25.879,31.738,24.414,52.246,0
1540168462.635,22.461,29.297,29.297,20.996,8.301,0
1540168462.639,21.973,32.227,30.762,25.391,47.852,0
1540168462.643,31.250,31.738,30.762,25.879,29.297,0
1540168462.647,33.691,28.809,25.879,25.879,28.809,0
1540168462.651,23.926,29.297,32.227,33.203,30.273,0
1540168462.655,26.367,33.691,33.691,23.438,-20.508,0
1540168462.659,38.086,33.691,32.227,14.648,12.207,0
1540168462.663,37.109,33.691,32.715,20.020,22.949,0
1540168462.666,39.551,32.227,34.668,19.531,7.812,0
1540168462.670,47.363,29.785,35.156,17.090,70.801,0
1540168462.674,58.105,33.203,33.203,12.695,42.480,0
1540168462.678,56.152,33.691,33.691,17.578,-2.441,1
1540168462.682,48.828,29.785,32.715,23.438,-5.859,0
1540168462.686,45.898,29.297,31.738,20.508,19.043,0
1540168462.690,42.480,29.297,34.180,22.949,44.922,0
1540168462.694,38.086,31.250,39.062,30.273,11.719,0
1540168462.698,32.715,29.785,40.527,34.180,17.090,0
1540168462.702,25.879,19.531,39.062,32.227,60.059,0
1540168462.705,19.043,20.508,36.133,35.156,74.707,0
1540168462.709,27.344,22.949,35.156,39.551,42.480,0
1540168462.713,35.156,23.438,35.156,41.992,20.020,0
1540168462.717,33.691,26.367,37.109,45.898,68.359,0
1540168462.721,31.250,25.879,32.715,41.016,9.277,0
1540168462.725,26.855,25.879,29.785,30.762,-66.406,0
1540168462.729,20.508,23.926,30.273,27.832,-12.207,0
1540168462.733,18.555,20.996,31.250,35.645,20.996,0
1540168462.737,22.949,24.414,29.785,26.367,-7.812,0
1540168462.741,26.367,25.391,31.738,13.184,-24.414,0
1540168462.745,21.973,23.438,34.668,20.508,26.855,0
1540168462.748,20.996,29.297,29.297,27.832,50.293,0
1540168462.752,22.461,33.691,25.879,29.297,-6.348,0
1540168462.756,24.902,29.297,32.227,21.484,-36.133,0
1540168462.760,23.926,28.809,33.691,11.719,14.160,0
1540168462.764,20.020,30.273,29.785,15.137,-6.348,0
1540168462.768,21.484,26.855,28.320,27.344,26.367,0
1540168462.772,20.996,27.832,26.367,28.320,62.012,0
1540168462.776,23.438,30.762,27.832,22.949,12.207,0
1540168462.780,26.855,30.273,29.785,28.320,29.297,0
1540168462.784,22.949,29.785,29.297,38.086,60.547,0
1540168462.788,19.531,26.855,34.180,35.156,56.641,0
1540168462.791,28.320,26.855,41.992,25.391,44.434,0
1540168462.795,27.832,28.809,35.645,23.438,44.434,0
1540168462.799,19.531,31.250,31.738,29.785,69.336,0
1540168462.803,16.113,30.273,32.715,26.855,11.719,0
1540168462.807,24.414,23.926,28.320,21.973,-10.254,0
1540168462.811,31.738,24.902,31.738,27.832,19.043,0
1540168462.815,29.297,29.297,39.551,26.855,31.250,0
1540168462.819,25.879,26.367,40.527,23.926,36.621,0
1540168462.823,27.832,23.438,38.086,28.320,-21.484,0
1540168462.827,33.691,28.320,38.574,29.785,9.766,0
1540168462.830,35.645,30.273,33.203,28.809,61.035,0
1540168462.834,38.086,29.785,31.250,29.297,73.730,0
1540168462.838,37.109,29.785,39.062,32.715,104.980,0
1540168462.842,36.621,27.832,42.480,35.156,50.781,0
1540168462.846,42.480,23.438,33.691,27.344,1.953,0
1540168462.850,42.480,21.973,31.250,18.066,7.812,0
1540168462.854,38.086,23.926,38.574,25.879,18.066,0
1540168462.858,37.598,28.809,38.086,26.367,61.523,0
1540168462.862,40.527,30.762,36.621,33.203,32.227,0
1540168462.866,43.945,27.344,38.574,43.457,38.574,0
1540168462.870,39.551,26.367,38.086,36.133,36.621,0
1540168462.873,40.527,23.926,36.621,31.250,44.434,0
1540168462.877,46.387,21.973,34.668,33.203,82.031,0
1540168462.881,40.527,22.949,35.156,37.109,7.324,0
1540168462.885,33.203,23.926,36.621,39.062,17.578,0
1540168462.889,35.645,28.320,30.762,40.527,52.246,0
1540168462.893,39.551,31.250,27.344,35.156,61.523,0
1540168462.897,38.574,32.227,29.297,26.855,51.758,0
1540168462.901,36.621,31.738,30.762,21.484,55.176,0
1540168462.905,36.621,27.344,30.273,25.391,92.773,0
1540168462.909,40.039,26.367,30.273,24.414,39.551,0
1540168462.913,40.527,30.273,31.250,18.555,11.230,0
1540168462.916,41.992,31.738,30.762,25.391,40.527,0
1540168462.920,39.062,30.273,30.273,28.809,-18.066,0
1540168462.924,34.180,30.273,33.691,17.090,2.441,0
1540168462.928,30.273,31.738,34.180,16.602,55.664,0
1540168462.932,29.297,28.809,31.250,23.926,81.055,0
1540168462.936,33.691,29.297,30.762,20.996,60.059,0
1540168462.940,33.203,32.227,26.367,20.020,14.648,0
1540168462.944,35.645,31.250,26.855,23.438,39.062,0
1540168462.948,30.273,29.785,29.297,23.438,17.090,0
1540168462.952,24.414,29.297,29.297,21.973,44.922,0
1540168462.955,30.273,30.273,34.668,25.879,76.172,0
1540168462.959,32.715,31.250,38.574,26.367,49.316,0
1540168462.963,31.738,32.227,30.273,27.344,35.156,0
1540168462.967,27.344,32.227,28.809,30.762,12.207,0
1540168462.971,24.902,32.715,34.668,35.156,27.344,0
1540168462.975,29.785,32.227,32.227,36.133,51.758,0
1540168462.979,32.227,30.762,30.273,27.832,17.090,0
1540168462.983,27.832,30.273,28.809,22.461,75.195,0
1540168462.987,16.602,29.785,28.320,19.531,68.848,0
1540168462.991,19.531,30.762,30.273,12.695,-8.301,0
1540168462.995,23.926,27.832,29.785,18.555,-63.477,0
1540168462.998,20.996,25.879,30.273,26.367,3.906,0
1540168463.002,26.855,27.344,30.273,24.414,70.801,0
1540168463.006,35.156,26.855,30.762,29.297,27.832,0
1540168463.010,29.785,27.832,30.273,40.527,21.973,0
1540168463.014,22.461,29.785,30.762,38.574,-10.742,0
1540168463.018,22.949,30.273,35.156,30.273,-8.301,0
1540168463.022,31.250,28.809,33.691,27.832,15.625,0
1540168463.026,33.203,26.855,33.691,26.367,-4.883,0
1540168463.030,32.715,29.297,34.668,25.391,6.836,0
1540168463.034,30.273,30.762,36.133,25.879,35.156,0
1540168463.038,29.297,26.855,36.133,21.973,62.500,0
1540168463.041,28.809,25.879,32.227,11.230,30.273,0
1540168463.045,24.414,27.832,31.738,17.578,-13.672,0
1540168463.049,26.367,26.367,29.297,34.180,45.898,0
1540168463.053,18.555,24.902,30.273,25.879,36.133,0
1540168463.057,20.020,27.344,34.668,15.137,-4.883,0
1540168463.061,26.367,28.809,37.598,18.555,-10.254,0
1540168463.065,26.367,27.344,35.156,26.367,50.293,0
1540168463.069,29.785,25.879,35.156,26.855,108.398,0
1540168463.073,40.039,28.320,36.133,16.602,30.762,0
1540168463.077,38.086,28.320,33.203,21.484,-33.203,0
1540168463.080,23.438,23.926,30.273,36.621,-25.879,0
1540168463.084,21.973,26.367,30.273,33.203,-5.371,0
1540168463.088,20.508,28.809,32.227,15.625,24.902,0
1540168463.092,25.879,26.367,31.738,9.766,3.418,0
1540168463.096,27.832,26.367,32.227,23.438,-38.574,0
1540168463.100,21.973,25.879,32.227,42.480,8.789,0
1540168463.104,22.461,24.414,26.855,31.738,62.012,0
1540168463.108,28.320,26.855,14.648,15.137,32.227,0
1540168463.112,26.855,24.902,20.508,15.625,18.555,0
1540168463.116,22.949,21.973,29.785,18.555,21.484,0
1540168463.120,22.461,23.438,27.344,20.996,2.930,0
1540168463.123,26.855,21.973,28.320,29.785,53.223,0
1540168463.127,26.855,19.531,29.785,24.414,41.992,0
1540168463.131,24.414,19.043,28.320,14.648,3.906,0
1540168463.135,25.391,20.020,31.250,21.484,-21.484,0
1540168463.139,22.949,23.438,33.203,18.555,-20.020,0
1540168463.143,29.785,27.344,25.879,20.996,49.316,0
1540168463.147,35.156,33.691,26.367,38.574,92.773,0
1540168463.151,29.297,30.273,30.273,35.156,51.758,0
1540168463.155,27.344,23.926,24.414,23.438,46.387,0
1540168463.159,32.715,22.461,25.879,16.602,63.477,0
1540168463.163,33.691,11.719,30.762,10.254,13.184,0
1540168463.166,31.250,16.602,30.762,24.902,-10.254,0
1540168463.170,42.480,31.250,25.879,29.785,13.672,0
1540168463.174,36.133,30.273,25.879,13.184,37.109,0
1540168463.178,10.742,27.344,33.203,21.484,16.113,0
1540168463.182,18.066,23.438,34.180,33.691,5.859,0
1540168463.186,16.113,22.949,36.133,16.602,-3.906,0
1540168463.190,2.930,29.297,35.156,13.672,-0.488,0
1540168463.194,9.277,34.668,34.668,20.508,33.691,0
1540168463.198,10.742,32.715,37.109,11.719,37.109,0
1540168463.202,8.301,30.762,36.621,19.531,70.801,0
1540168463.205,12.207,33.203,34.668,31.738,57.129,0
1540168463.209,16.113,33.203,35.645,17.090,43.457,0
1540168463.213,18.555,30.273,34.180,20.020,23.926,0
1540168463.217,19.531,28.320,33.203,38.574,30.762,0
1540168463.221,20.020,25.391,33.691,32.227,89.844,0
1540168463.225,29.785,24.902,34.668,17.090,32.227,0
1540168463.229,31.738,29.785,33.691,25.391,50.781,0
1540168463.233,31.738,31.250,33.691,25.879,58.594,0
1540168463.237,28.809,27.344,37.598,26.855,67.383,0
1540168463.241,34.180,26.855,35.645,37.109,57.129,0
1540168463.245,30.762,26.367,30.273,34.668,1.465,0
1540168463.248,25.879,29.297,30.273,33.691,34.180,0
1540168463.252,36.133,32.715,31.738,37.598,41.992,0
1540168463.256,47.363,30.762,34.180,35.156,-58.105,0
1540168463.260,45.898,28.320,33.203,39.062,-31.738,0
1540168463.264,36.133,25.391,32.227,30.273,63.477,0
1540168463.268,30.273,27.344,27.344,25.391,32.715,0
1540168463.272,25.391,31.250,24.414,33.691,24.902,0
1540168463.276,30.273,25.879,31.250,27.832,20.020,0
1540168463.280,29.297,26.367,36.133,34.180,45.410,0
1540168463.284,21.484,32.715,36.621,25.391,36.133,0
1540168463.288,19.531,29.785,35.645,19.043,55.176,0
1540168463.291,31.250,28.320,33.691,32.715,48.340,0
1540168463.295,31.738,28.320,33.203,29.297,38.086,0
1540168463.299,26.367,25.879,37.598,21.973,60.059,0
1540168463.303,31.738,26.855,34.180,21.484,13.184,0
1540168463.307,29.297,20.508,26.367,11.230,38.086,0
1540168463.311,33.691,20.508,26.367,20.996,64.453,0
1540168463.315,38.574,21.973,27.832,32.227,24.414,1
1540168463.319,26.855,20.996,26.367,22.949,15.137,0
1540168463.323,31.738,23.438,33.203,22.461,8.789,0
1540168463.327,34.180,19.043,39.551,27.344,24.902,0
1540168463.330,26.367,21.973,35.645,39.551,12.207,0
1540168463.334,32.715,27.832,30.762,48.340,-48.828,0
1540168463.338,32.227,26.855,22.949,37.109,-28.320,0
1540168463.342,27.832,27.832,23.926,10.742,8.301,0
1540168463.346,28.809,29.785,25.391,8.789,47.852,0
1540168463.350,26.855,29.785,20.996,14.648,59.082,0
1540168463.354,25.879,28.809,25.391,11.719,36.621,0
1540168463.358,28.809,26.367,29.785,13.184,39.551,0
1540168463.362,33.203,27.344,27.344,21.484,43.457,0
1540168463.366,41.016,28.320,23.438,40.527,19.531,0
1540168463.370,43.945,26.367,25.879,37.109,31.738,0
1540168463.373,41.504,28.320,30.273,17.578,53.223,0
1540168463.377,36.133,27.832,33.203,21.484,26.367,0
1540168463.381,34.668,26.367,33.203,32.715,-3.418,0
1540168463.385,33.203,27.832,29.297,29.297,2.930,0
1540168463.389,28.809,29.785,30.273,32.715,25.879,0
1540168463.393,24.902,27.344,31.738,23.926,41.016,0
1540168463.397,24.902,24.902,26.367,24.902,48.828,0
1540168463.401,32.715,24.902,21.484,28.809,22.949,0
1540168463.405,31.250,25.391,24.902,17.578,39.062,0
1540168463.409,31.738,29.297,29.785,22.461,45.410,0
1540168463.413,35.645,32.715,28.809,27.832,6.836,0
1540168463.416,34.668,31.250,25.391,30.762,4.883,0
1540168463.420,35.645,24.414,24.902,36.621,17.578,0
1540168463.424,32.715,25.879,19.043,34.180,70.801,0
1540168463.428,33.203,33.203,21.484,30.762,54.199,0
1540168463.432,36.621,29.785,27.344,32.715,3.418,0
1540168463.436,34.180,29.297,22.949,18.066,65.430,0
1540168463.440,35.156,35.645,26.855,17.578,92.285,0
1540168463.444,35.156,31.738,34.180,28.320,55.176,0
1540168463.448,33.203,28.809,34.668,34.668,43.945,0
1540168463.452,35.645,28.320,31.250,34.668,17.090,0
1540168463.455,32.715,28.320,29.785,22.461,53.711,0
1540168463.459,31.738,21.973,22.461,18.066,89.844,0
1540168463.463,25.391,14.648,21.484,21.484,7.324,0
1540168463.467,18.066,20.508,27.832,19.531,14.648,0
1540168463.471,19.043,21.973,24.902,17.090,64.453,0
1540168463.475,20.508,21.973,27.344,15.625,20.020,0
1540168463.479,24.414,23.438,30.762,17.578,15.137,0
1540168463.483,26.367,19.043,24.902,20.996,46.387,0
1540168463.487,26.367,20.996,19.531,21.484,18.066,0
1540168463.491,27.344,24.414,23.438,18.066,-0.977,0
1540168463.495,22.949,19.531,32.227,6.348,-9.277,0
1540168463.498,14.648,18.066,35.645,7.324,1.465,0
1540168463.502,9.277,19.531,32.227,15.137,6.836,0
1540168463.506,10.254,22.949,32.227,6.836,16.602,0
1540168463.510,12.207,21.973,30.273,6.348,1.953,0
1540168463.514,19.043,19.531,23.926,14.648,18.555,0
1540168463.518,16.602,20.508,27.832,18.066,81.543,0
1540168463.522,9.277,19.531,26.855,23.926,56.641,0
1540168463.526,17.090,20.996,29.785,33.691,83.496,0
1540168463.530,19.531,22.461,34.668,34.668,61.523,0
1540168463.534,17.090,19.531,32.715,26.855,15.625,0
1540168463.538,20.020,20.020,32.227,26.855,-1.465,0
1540168463.541,23.926,20.508,27.344,24.414,-14.648,0
1540168463.545,23.438,20.508,30.762,21.484,59.082,0
1540168463.549,23.926,21.973,38.086,22.461,55.176,0
1540168463.553,27.832,22.949,32.715,24.414,44.434,0
1540168463.557,34.180,20.020,23.438,27.344,61.523,0
1540168463.561,46.387,19.043,28.320,23.926,41.992,0
1540168463.565,46.875,22.461,34.180,9.277,64.453,0
1540168463.569,47.852,32.715,35.645,6.836,42.969,0
1540168463.573,53.223,39.062,29.785,19.043,13.184,0
1540168463.577,52.246,34.180,25.879,17.578,62.012,0
1540168463.580,52.734,26.855,31.250,23.438,34.668,0
1540168463.584,44.922,21.973,33.691,38.574,9.277,0
1540168463.588,34.668,23.926,36.133,46.387,72.754,0
1540168463.592,33.691,26.367,37.109,48.340,70.801,0
1540168463.596,28.809,24.902,37.109,36.621,62.012,0
1540168463.600,24.902,24.902,34.180,19.531,36.621,0
1540168463.604,33.691,31.250,29.297,23.438,3.418,0
1540168463.608,32.227,31.250,25.879,26.367,43.457,0
1540168463.612,23.438,27.832,31.738,27.832,37.598,0
1540168463.616,24.414,25.391,39.551,30.273,45.898,0
1540168463.620,23.926,26.367,33.203,30.273,39.062,0
1540168463.623,23.926,28.320,32.227,18.555,58.105,0
1540168463.627,23.438,25.879,35.645,20.508,42.969,0
1540168463.631,22.949,25.391,32.715,31.250,-12.695,0
1540168463.635,21.973,26.855,32.715,24.902,-44.434,0
1540168463.639,23.438,25.391,32.227,23.438,7.324,0
1540168463.643,33.691,20.508,27.344,30.273,41.016,0
1540168463.647,30.762,20.020,29.297,28.320,20.996,0
1540168463.651,22.949,26.855,33.203,20.508,73.730,0
1540168463.655,23.926,32.227,32.715,23.438,56.641,0
1540168463.659,27.832,32.227,29.297,28.809,26.855,0
1540168463.663,25.391,28.320,19.531,22.461,47.363,0
1540168463.666,19.043,26.367,19.531,30.762,18.555,0
1540168463.670,23.438,21.484,25.879,38.086,44.922,0
1540168463.674,36.621,14.648,27.832,18.066,42.480,0
1540168463.678,32.715,17.578,29.297,9.277,13.184,0
1540168463.682,19.531,19.043,24.414,23.926,20.996,0
1540168463.686,17.090,17.090,19.043,37.109,39.062,0
1540168463.690,23.926,17.090,25.391,33.691,65.918,0
1540168463.694,28.320,19.531,32.715,24.902,35.645,0
1540168463.698,25.391,22.461,32.715,17.578,-6.348,0
1540168463.702,23.438,23.438,31.738,13.672,-14.160,0
1540168463.705,26.367,23.438,28.809,17.578,-4.395,0
1540168463.709,28.320,20.508,23.926,26.367,6.348,0
1540168463.713,22.461,18.066,23.926,28.809,63.477,0
1540168463.717,24.414,18.555,27.832,27.832,41.504,0
1540168463.721,25.391,20.020,24.902,21.973,-2.930,0
1540168463.725,26.855,20.508,18.555,15.625,52.246,0
1540168463.729,33.691,21.973,17.578,20.996,45.410,0
1540168463.733,27.344,22.461,20.020,26.855,25.391,0
1540168463.737,22.461,22.949,22.949,30.273,19.043,0
1540168463.741,34.180,26.367,27.344,28.809,-53.711,0
1540168463.745,36.621,32.227,28.320,23.926,-30.273,0
1540168463.748,31.738,31.738,29.297,22.949,41.992,0
1540168463.752,24.902,30.762,30.762,13.672,56.152,0
1540168463.756,23.438,33.203,33.691,4.883,34.668,0
1540168463.760,17.578,40.039,30.762,-11.719,77.637,0
1540168463.764,8.301,49.316,28.809,-9.277,78.125,0
1540168463.768,9.277,44.922,36.621,4.395,66.406,0
1540168463.772,-0.977,41.016,31.738,-16.602,124.023,0
1540168463.776,-15.625,45.410,23.438,-40.039,36.621,0
1540168463.780,-22.949,47.363,18.066,-47.852,-47.852,0
1540168463.784,-27.832,50.781,14.648,-42.480,-4.395,0
1540168463.788,-32.715,54.688,16.113,-39.551,17.090,0
1540168463.791,-43.457,52.246,14.160,-61.035,39.551,0
1540168463.795,-57.617,52.246,10.254,-68.848,53.223,0
1540168463.799,-58.105,50.781,12.695,-64.453,12.695,0
1540168463.803,-52.734,49.805,14.160,-56.641,6.348,0
1540168463.807,-55.664,54.199,12.207,-57.617,5.371,0
1540168463.811,-54.688,55.664,11.719,-69.824,-51.758,0
1540168463.815,-46.875,51.758,13.184,-59.570,-7.812,0
1540168463.819,-40.039,49.805,17.578,-50.781,24.414,0
1540168463.823,-36.133,51.270,15.137,-47.363,12.207,0
1540168463.827,-32.715,50.293,15.625,-49.805,52.246,0
1540168463.830,-32.715,48.340,15.625,-35.156,42.480,0
1540168463.834,-25.879,45.410,11.719,-18.555,26.855,0
1540168463.838,-16.113,43.945,15.625,-25.879,25.391,0
1540168463.842,-11.719,41.016,19.043,-16.113,5.371,0
1540168463.846,-9.277,41.016,19.043,-8.301,-8.789,0
1540168463.850,-8.789,41.016,20.020,-15.625,11.719,0
1540168463.854,-10.254,38.574,20.508,-24.414,2.441,0
1540168463.858,-5.859,36.621,22.461,-24.414,-11.230,0
1540168463.862,-4.395,34.668,24.902,-6.348,63.965,0
1540168463.866,3.906,33.203,21.973,2.441,62.500,0
1540168463.870,8.301,30.762,22.949,-0.977,62.988,0
1540168463.873,5.371,28.320,27.344,11.230,46.387,0
1540168463.877,11.230,28.809,29.297,26.367,-2.441,0
1540168463.881,17.090,25.391,30.273,25.391,37.598,0
1540168463.885,21.973,20.508,29.785,33.691,26.367,0
1540168463.889,27.344,18.555,25.391,38.086,-11.230,0
1540168463.893,30.762,15.137,22.461,21.973,28.809,0
1540168463.897,27.344,14.160,25.391,25.391,45.410,0
1540168463.901,24.902,14.160,30.273,40.039,41.016,0
1540168463.905,28.809,14.648,31.250,44.434,6.348,0
1540168463.909,37.109,17.090,34.668,40.527,-21.484,0
1540168463.913,39.062,15.625,35.645,44.922,0.488,0
1540168463.916,33.203,15.137,33.691,50.781,0.000,0
1540168463.920,32.715,17.090,34.180,61.035,15.137,0
1540168463.924,39.062,18.555,33.203,70.312,38.086,0
1540168463.928,39.551,20.508,35.645,66.406,11.719,0
1540168463.932,39.062,22.461,38.086,51.758,3.418,0
1540168463.936,45.410,24.414,38.574,52.246,76.660,0
1540168463.940,49.316,25.391,38.574,55.176,56.152,0
1540168463.944,47.363,25.391,36.133,55.664,27.344,0
1540168463.948,49.316,23.926,37.109,61.035,55.664,0
1540168463.952,52.246,24.414,33.203,64.941,35.156,0
1540168463.955,58.594,26.367,27.344,63.965,0.000,0
1540168463.959,58.105,29.297,34.668,60.059,-16.602,0
1540168463.963,52.246,35.645,41.016,57.617,22.949,0
1540168463.967,49.316,36.133,39.062,56.152,30.273,1
1540168463.971,47.363,33.203,37.598,58.594,1.465,0
1540168463.975,53.223,31.738,36.133,56.641,-0.977,0
1540168463.979,54.199,31.250,33.691,56.641,67.871,0
1540168463.983,49.805,29.785,33.691,67.383,69.824,0
1540168463.987,51.758,26.855,38.086,59.082,10.742,0
1540168463.991,55.664,30.273,33.691,49.805,19.043,0
1540168463.995,47.852,32.715,27.344,51.270,61.035,0
1540168463.998,44.922,27.344,32.715,49.805,103.516,0
1540168464.002,43.457,26.367,29.785,47.852,37.598,0
1540168464.006,47.363,30.762,29.297,40.527,47.363,0
1540168464.010,50.293,31.250,33.691,43.457,68.848,0
1540168464.014,48.340,30.762,26.855,46.387,16.113,0
1540168464.018,47.363,28.320,27.344,41.504,16.602,0
1540168464.022,46.387,30.762,32.227,44.434,37.598,0
1540168464.026,47.852,32.227,31.738,41.504,68.359,0
1540168464.030,47.852,29.785,33.691,45.410,86.426,0
1540168464.034,52.734,31.250,39.062,54.688,70.801,0
1540168464.038,48.828,28.809,37.109,57.129,48.828,0
1540168464.041,51.270,25.879,37.109,55.176,35.645,0
1540168464.045,52.246,26.855,40.039,51.270,-5.371,0
1540168464.049,41.504,20.020,28.809,49.805,-1.465,0
1540168464.053,38.574,15.625,19.531,48.340,13.672,0
1540168464.057,42.969,22.949,26.367,39.062,49.316,0
1540168464.061,40.527,27.832,33.691,31.250,49.316,0
1540168464.065,33.203,30.762,33.203,41.992,18.066,0
1540168464.069,27.832,27.832,31.738,42.969,-1.953,0
1540168464.073,29.785,26.367,30.273,38.086,-62.500,0
1540168464.077,40.039,36.133,23.926,43.457,30.762,0
1540168464.080,40.039,40.527,20.996,44.922,90.820,0
1540168464.084,36.133,35.156,28.809,41.016,4.883,0
1540168464.088,34.180,29.785,33.691,34.668,0.977,0
1540168464.092,35.645,31.738,32.227,41.504,43.457,0
1540168464.096,38.086,33.203,32.227,44.434,58.594,0
1540168464.100,40.527,30.273,34.668,38.574,52.246,0
1540168464.104,36.133,27.344,34.180,40.039,3.906,0
1540168464.108,37.598,29.785,24.902,43.945,-6.836,0
1540168464.112,40.527,31.250,30.762,42.480,-11.719,0
1540168464.116,36.621,29.297,36.621,33.203,-40.527,0
1540168464.120,34.668,29.297,28.320,31.738,-24.414,0
1540168464.123,34.180,26.367,25.391,39.551,14.160,0
1540168464.127,31.250,24.414,24.414,39.062,80.566,0
1540168464.131,27.344,25.879,21.484,37.109,32.227,0
1540168464.135,21.484,24.902,19.531,23.926,0.977,0
1540168464.139,20.020,22.461,20.508,18.555,30.762,0
1540168464.143,21.973,25.879,25.391,23.926,29.785,0
1540168464.147,21.484,28.320,32.227,15.137,34.180,0
1540168464.151,20.508,23.438,28.320,22.461,26.855,0
1540168464.155,14.648,17.578,24.414,18.555,36.133,0
1540168464.159,15.137,18.555,22.949,12.207,35.645,0
1540168464.163,15.137,20.508,22.949,11.719,41.016,0
1540168464.166,19.043,25.391,29.297,13.672,31.250,0
1540168464.170,14.648,25.391,33.203,21.484,22.949,0
1540168464.174,15.625,20.996,32.227,13.672,76.172,0
1540168464.178,25.879,24.414,30.762,16.602,57.129,0
1540168464.182,28.320,26.855,31.250,33.203,-17.578,0
1540168464.186,22.461,21.973,25.879,26.855,-29.297,0
1540168464.190,21.973,18.555,23.438,14.160,29.297,0
1540168464.194,27.832,20.020,26.855,18.555,27.344,0
1540168464.198,26.367,18.066,31.738,23.926,-18.066,0
1540168464.202,23.926,16.113,30.762,26.855,13.184,0
1540168464.205,27.344,20.508,24.414,36.133,39.062,0
1540168464.209,26.367,21.484,22.461,41.016,88.379,0
1540168464.213,24.414,20.020,30.762,25.879,109.375,0
1540168464.217,26.855,22.461,36.621,12.207,3.418,0
1540168464.221,27.832,22.949,35.156,10.254,-3.906,0
1540168464.225,33.691,21.484,35.156,13.184,17.090,0
1540168464.229,31.738,19.043,34.180,22.949,-28.320,0
1540168464.233,29.785,20.020,33.691,34.180,-20.020,0
1540168464.237,33.691,21.973,33.691,34.180,41.992,0
1540168464.241,34.668,20.020,33.203,20.996,53.223,0
1540168464.245,38.086,20.020,34.180,25.879,-4.395,0
1540168464.248,39.062,22.949,33.203,37.598,41.504,0
1540168464.252,29.785,20.508,27.344,37.109,137.207,0
1540168464.256,29.785,20.508,28.809,33.691,77.148,0
1540168464.260,34.668,23.438,32.715,37.598,0.977,0
1540168464.264,34.180,21.973,31.250,29.297,-17.090,0
1540168464.268,34.668,24.414,34.180,27.832,-20.020,0
1540168464.272,38.086,30.273,36.621,41.504,19.531,0
1540168464.276,41.016,29.297,29.297,32.227,34.668,0
1540168464.280,38.574,24.414,27.344,30.762,-16.113,0
1540168464.284,40.527,25.391,30.273,35.645,-55.664,0
1540168464.288,36.621,28.809,28.809,35.645,-35.156,0
1540168464.291,34.180,28.320,27.344,39.551,-36.621,0
1540168464.295,35.645,26.367,24.414,43.457,-17.090,0
1540168464.299,39.062,28.320,28.320,48.828,46.387,0
1540168464.303,43.457,29.785,33.203,41.992,65.918,0
1540168464.307,43.945,28.320,30.762,42.480,36.621,0
1540168464.311,41.504,30.762,26.367,32.227,-25.391,0
1540168464.315,41.992,30.273,27.344,23.926,-33.691,0
1540168464.319,43.457,29.297,29.297,36.133,39.062,0
1540168464.323,42.480,30.273,29.785,32.715,68.359,0
1540168464.327,40.527,26.855,30.273,35.645,-12.207,0
1540168464.330,35.156,26.367,32.715,47.363,-4.395,0
1540168464.334,25.391,28.320,33.203,46.875,63.965,0
1540168464.338,23.438,27.344,31.738,26.855,31.250,0
1540168464.342,32.715,25.879,31.250,23.438,13.672,0
1540168464.346,29.785,29.785,28.809,33.203,82.520,0
1540168464.350,20.508,29.297,30.273,34.180,70.312,0
1540168464.354,18.555,28.320,29.785,39.062,50.781,0
1540168464.358,20.020,27.832,28.809,29.297,75.195,0
1540168464.362,24.902,24.414,33.691,27.832,57.617,0
1540168464.366,27.344,25.879,37.109,32.715,50.781,0
1540168464.370,16.602,24.902,31.250,34.180,59.082,0
1540168464.373,16.113,20.508,30.762,36.133,89.355,0
1540168464.377,22.949,18.066,32.227,30.762,78.613,0
1540168464.381,24.902,21.973,31.738,27.344,41.992,0
1540168464.385,27.832,23.438,38.086,28.809,22.461,0
1540168464.389,25.879,21.484,39.062,28.320,25.879,0
1540168464.393,26.367,18.555,33.203,24.902,27.832,0
1540168464.397,19.043,16.602,34.180,25.879,-13.672,0
1540168464.401,14.648,18.066,35.156,19.531,-15.137,0
1540168464.405,19.043,20.996,34.180,21.973,-15.625,0
1540168464.409,20.996,21.973,37.109,29.785,35.156,0
1540168464.413,20.020,18.066,36.621,28.320,61.523,0
1540168464.416,20.508,19.531,36.133,29.297,86.426,0
1540168464.420,20.508,23.438,34.668,31.738,95.215,0
1540168464.424,22.949,20.996,27.832,24.902,17.090,0
1540168464.428,25.391,18.066,25.391,23.926,17.090,0
1540168464.432,23.926,20.508,29.785,32.227,54.688,0
1540168464.436,29.297,22.461,27.832,27.344,53.711,0
1540168464.440,35.156,26.855,20.996,11.719,-18.066,0
1540168464.444,42.480,27.344,22.461,13.184,-1.953,0
1540168464.448,53.711,27.344,29.297,19.531,89.355,0
1540168464.452,55.664,30.273,29.297,22.461,28.809,0
1540168464.455,53.223,27.832,30.273,23.926,-3.418,0
1540168464.459,53.223,30.762,33.203,20.020,39.551,0
1540168464.463,38.574,31.250,34.668,18.066,26.367,0
1540168464.467,25.879,25.391,27.832,25.391,16.602,0
1540168464.471,29.297,26.855,25.879,30.762,9.277,0
1540168464.475,31.250,24.414,36.133,35.645,12.207,0
1540168464.479,27.344,20.020,33.691,28.809,36.621,0
1540168464.483,29.297,21.484,31.738,31.738,-5.859,0
1540168464.487,30.273,20.020,31.250,37.109,1.953,0
1540168464.491,28.320,20.508,27.832,22.461,-4.395,0
1540168464.495,38.086,25.391,29.297,21.484,17.090,0
1540168464.498,41.016,25.391,37.598,31.250,22.461,0
1540168464.502,35.645,24.902,39.062,35.645,-0.488,0
1540168464.506,32.227,25.391,27.832,39.551,18.066,0
1540168464.510,31.738,22.949,22.461,25.391,71.777,0
1540168464.514,36.133,23.926,29.297,35.645,45.898,0
1540168464.518,35.156,23.438,32.227,41.992,-11.230,0
1540168464.522,27.832,19.531,31.738,28.809,23.926,0
1540168464.526,25.879,21.484,38.574,29.297,49.316,0
1540168464.530,32.715,25.879,42.969,37.598,45.410,0
1540168464.534,34.668,26.367,34.668,35.645,-20.020,0
1540168464.538,27.832,23.926,28.320,19.531,5.859,0
1540168464.541,31.738,24.414,32.227,18.555,26.855,0
1540168464.545,29.297,23.926,33.691,25.391,-41.016,0
1540168464.549,25.391,24.902,36.133,30.762,4.883,0
1540168464.553,30.762,28.320,34.180,31.738,81.543,0
1540168464.557,26.855,24.414,31.250,24.414,31.250,0
1540168464.561,23.438,23.926,32.227,24.414,51.270,0
1540168464.565,26.367,25.879,34.668,28.320,59.570,0
1540168464.569,27.344,25.391,38.574,29.785,-13.672,0
1540168464.573,28.320,29.297,33.691,30.273,-12.695,0
1540168464.577,29.785,31.738,24.902,22.461,48.340,0
1540168464.580,28.809,28.809,25.879,22.461,68.359,0
1540168464.584,27.344,26.855,31.250,33.691,92.773,0
1540168464.588,30.273,28.809,32.715,34.180,70.801,0
1540168464.592,38.086,28.320,31.738,29.785,34.180,0
1540168464.596,37.598,24.902,33.203,34.668,33.691,0
1540168464.600,31.250,22.461,32.715,37.598,73.730,0
1540168464.604,33.203,24.414,30.762,35.156,22.949,0
1540168464.608,36.621,25.879,33.203,29.297,-30.762,0
1540168464.612,34.180,24.902,32.715,28.809,52.246,0
1540168464.616,36.133,25.391,29.297,30.762,54.199,0
1540168464.620,33.691,26.367,30.762,34.668,12.695,0
1540168464.623,34.180,29.785,30.273,26.855,31.738,0
1540168464.627,38.086,28.320,27.832,18.555,27.832,0
1540168464.631,44.434,27.344,27.344,23.438,15.625,1
1540168464.635,45.410,29.297,30.273,26.855,51.758,0
1540168464.639,39.551,28.809,26.367,29.785,45.898,0
1540168464.643,48.828,30.273,23.438,31.250,28.320,0
1540168464.647,45.898,29.785,33.691,28.809,34.180,0
1540168464.651,27.344,24.414,38.574,25.879,29.785,0
1540168464.655,27.832,23.926,33.691,25.879,4.395,0
1540168464.659,38.086,27.344,33.203,27.344,-23.438,0
1540168464.663,36.133,28.320,34.180,31.738,22.461,0
1540168464.666,36.133,30.762,33.203,35.156,23.926,0
1540168464.670,38.574,30.762,31.738,41.016,-33.203,0
1540168464.674,48.340,29.297,30.273,37.598,-71.777,0
1540168464.678,49.316,28.809,26.855,27.832,-77.148,0
1540168464.682,38.574,28.320,24.414,29.785,-20.996,0
1540168464.686,36.133,29.785,24.902,21.973,32.227,0
1540168464.690,41.504,31.250,27.344,22.461,54.688,0
1540168464.694,44.434,27.832,29.785,35.645,1.465,0
1540168464.698,45.898,26.367,31.250,41.016,-31.250,0
1540168464.702,45.410,28.809,30.762,31.250,67.871,0
1540168464.705,41.504,26.367,30.273,22.461,58.594,0
1540168464.709,42.969,24.902,21.484,22.461,33.691,0
1540168464.713,38.086,27.344,22.461,29.785,36.621,0
1540168464.717,35.645,26.367,29.297,36.621,28.320,0
1540168464.721,35.645,20.508,29.785,40.039,63.477,0
1540168464.725,26.367,21.484,28.809,31.250,75.684,0
1540168464.729,23.926,24.414,25.879,30.273,38.086,0
1540168464.733,30.273,21.973,28.320,31.738,-21.484,0
1540168464.737,26.855,20.508,32.227,40.527,-9.277,0
1540168464.741,22.949,20.020,33.203,35.156,42.480,0
1540168464.745,27.832,22.949,30.273,27.344,9.766,0
1540168464.748,30.273,24.414,26.855,35.645,-30.273,0
1540168464.752,22.949,22.949,28.320,23.926,15.137,0
1540168464.756,21.484,23.926,27.832,27.344,42.480,0
1540168464.760,28.809,23.926,30.762,29.297,36.621,0
1540168464.764,26.855,23.438,35.156,22.949,48.340,0
1540168464.768,19.043,25.391,31.250,29.297,51.270,0
1540168464.772,20.020,26.367,31.250,33.691,26.855,0
1540168464.776,29.297,22.949,33.691,31.738,18.555,0
1540168464.780,27.832,24.902,36.133,35.645,57.129,0
1540168464.784,23.926,25.879,30.273,42.480,-10.742,0
1540168464.788,21.973,22.949,22.949,46.875,11.719,0
1540168464.791,25.879,23.926,29.785,39.062,136.719,0
1540168464.795,29.297,22.949,31.738,23.926,85.938,0
1540168464.799,29.785,24.414,31.250,29.297,79.590,0
1540168464.803,29.297,25.879,31.250,39.062,61.035,0
1540168464.807,26.855,27.832,33.203,31.738,28.809,0
1540168464.811,22.461,30.273,34.180,31.250,23.438,0
1540168464.815,12.207,26.855,35.645,43.945,10.254,0
1540168464.819,9.766,23.438,36.133,34.668,25.879,0
1540168464.823,12.695,25.879,34.180,20.020,41.992,0
1540168464.827,13.672,27.344,29.785,21.484,71.289,0
1540168464.830,17.090,27.344,32.227,20.508,74.707,0
1540168464.834,22.461,26.367,35.645,19.043,40.527,0
1540168464.838,29.297,26.855,36.621,24.902,-7.812,0
1540168464.842,36.133,28.320,37.598,30.762,56.641,0
1540168464.846,30.273,26.367,33.203,32.227,32.715,0
1540168464.850,28.320,24.414,35.156,34.668,31.250,0
1540168464.854,29.785,23.926,34.668,35.156,51.270,0
1540168464.858,24.414,22.461,24.414,25.879,5.371,0
1540168464.862,25.879,24.902,23.438,22.949,-15.137,0
1540168464.866,30.273,28.809,28.320,27.344,-29.785,0
1540168464.870,24.902,28.320,31.738,27.832,-15.137,0
1540168464.873,24.902,28.320,28.320,27.344,9.766,0
1540168464.877,31.250,30.762,23.438,27.344,14.648,0
1540168464.881,26.367,30.273,21.973,28.320,46.387,0
1540168464.885,23.438,25.879,30.762,36.621,66.895,0
1540168464.889,28.320,23.926,34.668,29.297,55.664,0
1540168464.893,34.180,26.367,31.250,16.602,33.203,0
1540168464.897,32.715,25.879,32.715,24.414,-22.949,0
1540168464.901,29.297,25.391,30.273,19.043,-22.949,0
1540168464.905,27.344,28.320,30.762,13.184,15.137,0
1540168464.909,25.391,26.855,30.762,18.555,23.926,0
1540168464.913,22.949,22.461,28.320,19.043,4.395,0
1540168464.916,22.949,24.902,32.715,19.531,8.789,0
1540168464.920,20.020,27.832,31.250,25.391,34.180,0
1540168464.924,26.367,24.414,24.414,24.414,77.148,0
1540168464.928,32.227,24.902,23.438,22.461,33.691,0
1540168464.932,26.855,24.902,21.973,30.273,-44.922,0
1540168464.936,28.809,21.973,25.391,29.297,-6.836,0
1540168464.940,34.180,22.461,28.809,25.879,20.996,0
1540168464.944,37.598,23.926,29.297,33.203,3.418,0
1540168464.948,32.227,23.438,25.879,37.598,13.184,0
1540168464.952,31.250,22.461,24.414,42.969,61.523,0
1540168464.955,34.180,22.949,29.297,43.457,65.918,0
1540168464.959,30.273,23.438,28.809,33.203,60.547,0
1540168464.963,27.344,24.902,30.273,23.438,53.223,0
1540168464.967,31.738,24.414,33.691,22.461,25.879,0
1540168464.971,26.367,22.461,31.250,21.484,7.324,0
1540168464.975,19.531,23.438,25.879,8.789,-14.648,0
1540168464.979,20.020,25.391,22.949,13.184,-22.461,0
1540168464.983,23.926,24.414,27.344,27.344,43.945,0
1540168464.987,25.879,24.902,31.250,31.250,33.691,0
1540168464.991,28.809,27.832,29.297,35.645,-20.020,0
1540168464.995,19.043,22.949,31.738,28.320,-11.230,0
1540168464.998,16.113,23.926,34.180,23.926,17.090,0
1540168465.002,24.414,32.227,28.320,23.926,81.055,0
1540168465.006,22.461,32.227,25.879,18.555,80.078,0
1540168465.010,20.020,29.785,23.438,18.555,17.578,0
1540168465.014,18.066,32.227,22.949,21.484,-41.016,0
1540168465.018,21.484,32.715,28.809,24.414,-7.324,0
1540168465.022,22.461,31.738,27.832,22.461,5.371,0
1540168465.026,27.832,31.738,18.066,32.715,34.668,0
1540168465.030,31.738,32.227,15.137,33.691,23.926,0
1540168465.034,32.715,29.785,24.414,20.508,-56.641,0
1540168465.038,26.367,29.297,29.297,22.461,-33.203,0
1540168465.041,25.879,31.250,32.227,27.832,-8.301,0
1540168465.045,30.273,29.785,28.320,35.156,20.996,0
1540168465.049,25.879,25.879,31.738,33.203,53.223,0
1540168465.053,20.020,27.344,35.156,30.273,41.504,0
1540168465.057,24.414,25.391,29.785,28.320,37.598,0
1540168465.061,36.621,27.832,26.367,37.109,34.668,0
1540168465.065,47.852,34.668,22.949,52.734,7.812,0
1540168465.069,41.992,29.785,21.484,53.223,1.953,0
1540168465.073,30.273,28.809,30.273,31.250,72.754,0
1540168465.077,37.109,30.762,23.926,31.250,63.965,0
1540168465.080,43.945,35.156,8.301,41.016,-6.836,0
1540168465.084,36.133,30.762,34.668,31.250,-7.324,0
1540168465.088,41.504,24.414,55.664,28.320,-15.137,0
1540168465.092,53.711,34.180,25.879,27.832,47.363,0
1540168465.096,27.832,27.344,22.461,16.602,69.336,0
1540168465.100,5.859,20.020,46.387,7.812,25.879,0
1540168465.104,8.789,26.367,44.922,19.531,26.367,0
1540168465.108,14.648,24.902,45.898,25.391,31.738,0
1540168465.112,24.414,26.367,47.363,18.066,33.203,0
1540168465.116,23.438,28.320,43.457,23.438,6.836,0
1540168465.120,18.555,26.855,42.969,20.508,26.367,0
1540168465.123,23.438,27.344,37.598,17.090,69.824,0
1540168465.127,23.926,27.344,35.156,21.973,92.285,0
1540168465.131,25.879,27.344,34.668,33.691,91.309,0
1540168465.135,30.762,28.320,37.598,44.434,60.059,0
1540168465.139,35.156,28.320,33.691,45.410,68.359,0
1540168465.143,41.504,26.855,22.949,38.086,37.109,0
1540168465.147,35.645,27.832,23.926,25.391,41.504,0
1540168465.151,28.320,30.273,26.367,17.578,39.062,0
1540168465.155,30.762,30.762,29.297,19.531,11.230,0
1540168465.159,35.645,28.809,28.809,27.344,28.809,0
1540168465.163,36.133,28.809,31.250,37.598,16.602,0
1540168465.166,39.551,30.273,34.180,37.598,3.906,0
1540168465.170,32.227,23.926,29.297,33.203,28.809,0
1540168465.174,30.762,21.484,25.879,45.898,2.930,0
1540168465.178,40.527,24.414,29.785,44.434,25.879,0
1540168465.182,41.504,27.832,26.367,37.109,92.285,0
1540168465.186,35.156,28.809,24.414,38.086,59.082,0
1540168465.190,33.691,25.879,33.203,37.598,-12.207,0
1540168465.194,35.645,27.344,34.668,23.926,-27.832,0
1540168465.198,32.715,29.785,25.391,16.602,27.344,0
1540168465.202,30.273,27.832,22.949,28.809,39.551,0
1540168465.205,35.156,27.832,20.020,36.133,68.359,0
1540168465.209,35.645,28.320,20.996,28.809,71.289,0
1540168465.213,31.738,26.855,30.273,22.461,21.484,0
1540168465.217,31.738,23.438,34.668,30.273,-0.977,0
1540168465.221,27.832,25.391,36.133,29.785,40.039,0
1540168465.225,26.855,24.902,30.273,25.391,34.668,0
1540168465.229,23.438,18.555,29.297,29.785,11.719,0
1540168465.233,21.484,20.020,35.156,24.414,57.129,0
1540168465.237,25.879,28.809,27.832,25.879,25.879,0
1540168465.241,35.156,36.133,23.438,36.133,16.113,0
1540168465.245,35.156,29.785,17.578,32.715,28.809,0
1540168465.248,17.578,20.020,22.949,23.438,28.809,0
1540168465.252,13.184,19.043,45.898,32.715,-32.715,0
1540168465.256,23.926,19.043,49.316,23.438,-46.387,0
1540168465.260,20.020,19.043,38.574,9.766,-23.438,0
1540168465.264,17.578,26.367,27.832,23.438,27.832,0
1540168465.268,25.391,28.320,29.297,36.133,88.867,0
1540168465.272,21.973,23.438,30.762,24.902,71.777,0
1540168465.276,26.367,22.949,23.438,17.090,18.066,0
1540168465.280,28.809,21.484,25.879,33.691,4.883,0
1540168465.284,21.973,22.461,32.227,29.297,56.152,1
1540168465.288,13.672,27.832,32.227,8.301,86.426,0
1540168465.291,16.113,26.855,29.785,5.371,37.109,0
1540168465.295,15.625,21.484,26.855,14.648,18.555,0
1540168465.299,10.742,21.484,24.902,22.461,47.363,0
1540168465.303,10.254,25.879,20.508,25.391,81.543,0
1540168465.307,18.555,30.273,17.090,28.809,27.832,0
1540168465.311,23.438,30.762,12.207,29.297,32.715,0
1540168465.315,16.602,23.438,12.207,29.297,49.805,0
1540168465.319,13.184,22.949,21.484,28.809,3.418,0
1540168465.323,16.113,26.367,29.785,16.602,32.715,0
1540168465.327,26.367,29.785,28.809,16.602,46.387,0
1540168465.330,32.715,31.738,28.809,25.879,49.316,0
1540168465.334,35.156,24.414,33.691,18.555,83.496,0
1540168465.338,41.992,21.973,33.203,8.301,35.156,0
1540168465.342,46.387,26.367,34.180,5.371,36.133,0
1540168465.346,43.945,29.785,28.809,11.719,38.574,0
1540168465.350,38.086,27.344,24.414,19.043,-13.672,0
1540168465.354,32.715,23.438,28.320,31.738,-25.879,0
1540168465.358,32.715,21.484,28.320,37.598,8.301,0
1540168465.362,23.438,23.926,31.738,28.809,19.531,0
1540168465.366,16.113,25.391,31.738,39.062,16.113,0
1540168465.370,19.043,21.973,33.203,44.922,19.043,0
1540168465.373,21.973,21.973,40.527,33.203,4.395,0
1540168465.377,28.809,22.461,38.574,26.367,-5.371,0
1540168465.381,28.320,22.461,38.574,35.645,18.555,0
1540168465.385,23.438,21.973,30.762,41.016,56.641,0
1540168465.389,25.391,21.484,29.297,33.691,-2.441,0
1540168465.393,30.273,22.461,31.738,28.320,-17.578,0
1540168465.397,22.949,20.508,30.762,33.203,31.250,0
1540168465.401,22.461,18.066,33.203,41.016,35.156,0
1540168465.405,30.762,19.531,29.785,43.457,27.344,0
1540168465.409,38.574,24.902,32.227,41.016,47.852,0
1540168465.413,32.227,25.391,37.598,36.621,-23.438,0
1540168465.416,23.926,22.461,35.156,28.320,-13.184,0
1540168465.420,26.855,23.926,33.203,28.320,55.176,0
1540168465.424,29.785,25.391,31.250,31.250,67.871,0
1540168465.428,30.762,25.391,29.785,31.250,55.176,0
1540168465.432,31.250,21.484,33.691,34.668,16.602,0
1540168465.436,31.250,22.949,34.180,30.762,31.738,0
1540168465.440,29.297,27.832,29.785,21.973,43.945,0
1540168465.444,29.297,28.809,30.273,26.367,-5.859,0
1540168465.448,26.855,29.297,31.250,30.762,-33.691,0
1540168465.452,20.508,27.344,24.414,33.691,-18.555,0
1540168465.455,20.020,26.855,18.066,27.832,10.254,0
1540168465.459,18.555,30.762,25.879,11.719,35.156,0
1540168465.463,25.391,28.809,36.133,17.578,42.480,0
1540168465.467,33.203,20.020,33.203,33.691,89.355,0
1540168465.471,28.809,21.973,29.297,23.926,96.191,0
1540168465.475,29.297,30.273,28.809,8.301,69.336,0
1540168465.479,37.598,30.762,28.809,14.648,103.516,0
1540168465.483,29.785,25.879,29.785,14.160,82.520,0
1540168465.487,16.602,20.996,30.273,19.531,8.789,0
1540168465.491,21.973,20.020,28.320,25.879,-23.926,0
1540168465.495,26.855,25.879,32.227,21.484,20.020,0
1540168465.498,28.809,27.832,28.809,26.855,54.199,0
1540168465.502,29.297,25.391,24.902,26.855,54.688,0
1540168465.506,31.250,25.879,32.715,20.020,60.547,0
1540168465.510,35.156,26.367,31.250,22.461,58.105,0
1540168465.514,35.645,23.926,32.715,31.250,24.414,0
1540168465.518,31.250,23.438,35.156,26.855,38.574,0
1540168465.522,32.715,26.855,27.832,30.273,94.238,0
1540168465.526,39.062,26.367,28.809,28.809,31.250,0
1540168465.530,36.133,25.391,31.738,34.180,14.160,0
1540168465.534,35.645,22.461,31.250,42.480,33.203,0
1540168465.538,38.086,22.949,31.738,28.320,4.395,0
1540168465.541,42.480,26.367,29.297,26.367,-1.465,0
1540168465.545,41.992,25.879,26.855,34.180,15.137,0
1540168465.549,39.062,24.902,24.902,37.109,48.340,0
1540168465.553,41.992,24.414,27.344,48.828,52.734,0
1540168465.557,51.270,27.344,27.832,41.992,40.527,0
1540168465.561,50.781,33.203,27.344,36.621,74.219,0
1540168465.565,48.340,31.250,30.273,44.434,38.574,0
1540168465.569,50.293,29.297,29.297,40.527,-37.598,0
1540168465.573,49.316,29.785,29.297,37.598,13.672,0
1540168465.577,45.898,27.832,30.273,36.133,31.738,0
1540168465.580,49.316,27.832,31.738,40.039,-39.062,0
1540168465.584,52.246,25.879,38.574,45.410,-10.254,0
1540168465.588,41.016,20.508,41.504,35.645,5.371,0
1540168465.592,42.480,21.484,41.504,31.738,31.250,0
1540168465.596,44.922,23.926,34.180,37.598,35.156,0
1540168465.600,35.645,23.926,28.809,41.992,30.273,0
1540168465.604,30.762,22.461,34.668,36.133,41.504,0
1540168465.608,30.762,17.578,36.621,26.855,28.320,0
1540168465.612,32.227,17.578,36.621,33.203,37.598,0
1540168465.616,35.645,18.555,37.598,34.180,98.145,0
1540168465.620,36.621,20.020,36.621,38.574,92.285,0
1540168465.623,35.156,21.484,36.621,42.969,15.137,0
1540168465.627,32.227,20.020,30.273,35.156,-37.598,0
1540168465.631,27.344,21.973,27.832,34.180,18.066,0
1540168465.635,24.414,25.879,30.762,40.039,78.125,0
1540168465.639,24.414,25.391,33.691,35.645,17.090,0
1540168465.643,27.344,21.484,38.086,33.203,22.949,0
1540168465.647,26.367,20.996,38.086,37.109,52.246,0
1540168465.651,20.996,20.020,39.062,28.809,59.570,0
1540168465.655,20.996,20.508,38.086,25.391,51.270,0
1540168465.659,24.902,20.996,33.691,25.391,48.340,0
1540168465.663,15.625,20.508,29.785,27.344,30.273,0
1540168465.666,16.113,25.391,31.738,34.668,5.371,0
1540168465.670,21.484,26.367,31.250,26.855,20.996,0
1540168465.674,17.578,24.902,30.273,14.648,33.691,0
1540168465.678,16.602,27.344,30.273,15.137,47.363,0
1540168465.682,17.090,28.320,29.785,20.508,42.480,0
1540168465.686,18.066,25.879,28.809,26.367,34.668,0
1540168465.690,21.973,24.414,25.879,22.949,80.078,0
1540168465.694,25.391,25.879,25.391,23.926,55.664,0
1540168465.698,24.902,29.785,24.414,21.973,-4.395,0
1540168465.702,24.902,32.227,26.367,24.902,41.992,0
1540168465.705,25.879,30.273,25.391,27.832,29.297,0
1540168465.709,28.320,30.762,22.949,25.391,-8.789,0
1540168465.713,29.297,30.273,26.367,36.621,48.828,0
1540168465.717,29.297,30.273,25.879,29.297,81.055,0
1540168465.721,26.855,29.297,23.926,16.113,57.617,0
1540168465.725,27.344,31.738,31.738,16.113,9.766,0
1540168465.729,32.715,35.156,30.762,28.320,-2.441,0
1540168465.733,40.527,36.621,22.461,38.086,-14.160,0
1540168465.737,39.062,34.180,25.391,34.668,7.812,0
1540168465.741,34.180,28.320,29.785,35.156,1.465,0
1540168465.745,30.762,28.809,32.227,36.621,25.879,0
1540168465.748,33.203,31.250,30.273,36.621,99.609,0
1540168465.752,40.039,29.785,30.762,36.621,44.434,0
1540168465.756,43.457,27.832,31.250,33.203,42.969,0
1540168465.760,40.527,26.855,24.902,26.855,66.895,0
1540168465.764,34.668,27.832,20.508,33.203,18.066,0
1540168465.768,33.203,26.855,26.855,50.781,-8.301,0
1540168465.772,33.203,25.391,27.832,43.945,28.320,0
1540168465.776,41.016,28.809,22.461,29.785,29.297,0
1540168465.780,49.316,34.668,20.996,29.297,12.695,0
1540168465.784,46.387,35.156,26.367,30.273,14.160,0
1540168465.788,31.738,29.785,32.227,29.297,-20.996,0
1540168465.791,22.949,23.926,31.250,27.832,18.066,0
1540168465.795,25.879,21.973,31.738,26.367,14.648,0
1540168465.799,25.391,23.438,33.691,24.414,27.832,0
1540168465.803,20.996,22.949,32.227,25.879,44.434,0
1540168465.807,24.414,25.391,30.762,31.250,39.551,0
1540168465.811,34.180,27.832,26.855,28.809,50.781,0
1540168465.815,37.109,27.832,28.320,21.973,63.477,0
1540168465.819,26.855,28.809,31.738,34.668,9.766,0
1540168465.823,17.090,27.832,29.297,34.668,0.977,0
1540168465.827,21.973,27.344,25.879,19.531,8.301,0
1540168465.830,24.414,23.438,27.344,19.043,8.789,0
1540168465.834,15.625,21.973,27.832,25.879,-1.953,0
1540168465.838,13.672,23.438,29.785,28.809,-40.527,0
1540168465.842,21.484,22.949,32.715,25.391,3.906,0
1540168465.846,21.484,23.926,31.738,25.391,65.430,0
1540168465.850,22.949,24.414,28.320,29.297,32.227,0
1540168465.854,16.113,24.902,26.367,23.926,-10.742,0
1540168465.858,20.996,26.855,27.344,21.973,12.695,0
1540168465.862,27.832,28.809,27.344,20.996,36.133,0
1540168465.866,23.926,28.809,24.902,23.438,83.008,0
1540168465.870,34.668,27.832,23.438,24.902,53.711,0
1540168465.873,30.762,24.414,29.297,23.926,16.113,0
1540168465.877,24.902,23.926,31.250,29.785,31.250,0
1540168465.881,25.391,24.414,33.203,26.367,-0.488,0
1540168465.885,22.949,21.484,36.133,23.438,-17.090,0
1540168465.889,22.461,23.926,34.668,25.391,12.695,0
1540168465.893,26.367,26.367,31.738,20.996,32.227,0
1540168465.897,33.691,27.344,30.273,23.926,30.273,0
1540168465.901,37.109,29.785,30.273,31.738,46.875,0
1540168465.905,35.645,29.785,32.715,40.527,68.359,0
1540168465.909,30.762,28.809,34.668,40.527,22.949,0
1540168465.913,26.367,29.297,32.227,38.086,-23.926,0
1540168465.916,24.902,29.297,30.762,40.039,15.137,0
1540168465.920,21.973,29.785,30.273,37.109,21.484,0
1540168465.924,29.785,28.809,32.227,37.598,5.371,0
1540168465.928,38.574,26.367,34.180,30.273,4.395,0
1540168465.932,34.668,29.785,33.691,36.621,13.672,0
1540168465.936,32.227,33.203,28.320,37.109,52.734,0
1540168465.940,41.504,32.227,25.879,28.809,70.801,0
1540168465.944,48.828,32.227,29.785,34.668,30.273,0
1540168465.948,47.363,32.227,32.715,37.598,-19.043,0
1540168465.952,38.086,32.227,30.762,33.691,0.488,0
1540168465.955,41.504,30.273,30.273,33.203,9.277,0
1540168465.959,50.781,28.809,29.297,33.203,-5.859,2
1540168465.963,43.457,27.344,28.320,32.715,54.688,0
1540168465.967,31.250,26.855,30.762,26.367,63.477,0
1540168465.971,26.367,31.738,31.250,26.367,62.500,0
1540168465.975,32.227,32.715,25.879,34.668,98.145,0
1540168465.979,38.574,32.227,24.414,29.297,45.410,0
1540168465.983,37.109,33.203,29.297,29.785,-4.395,0
1540168465.987,27.344,30.273,31.250,39.551,37.109,0
1540168465.991,27.344,28.320,35.645,31.250,56.152,0
1540168465.995,32.715,27.832,36.621,19.531,0.977,0
1540168465.998,35.645,28.320,35.156,31.738,15.137,0
1540168466.002,33.691,28.320,33.691,32.227,56.152,0
1540168466.006,25.879,26.855,33.691,20.996,19.043,0
1540168466.010,23.438,26.367,33.691,24.902,13.184,0
1540168466.014,20.020,26.367,30.273,30.273,34.668,0
1540168466.018,20.508,25.879,31.250,26.367,59.082,0
1540168466.022,31.250,27.832,31.250,23.438,114.258,0
1540168466.026,35.645,28.809,27.832,19.043,123.535,0
1540168466.030,27.832,30.762,30.762,22.949,73.730,0
1540168466.034,26.855,28.809,31.738,32.227,78.125,0
1540168466.038,33.203,26.367,28.320,25.879,45.410,0
1540168466.041,28.320,28.320,27.344,19.043,43.457,0
1540168466.045,20.996,31.250,26.367,17.090,31.738,0
1540168466.049,22.461,28.809,26.855,7.324,31.250,0
1540168466.053,17.578,24.902,24.414,4.883,43.945,0
1540168466.057,14.648,25.391,20.508,3.418,27.344,0
1540168466.061,23.438,27.344,21.484,13.184,41.504,0
1540168466.065,28.809,25.879,27.832,23.438,35.156,0
1540168466.069,25.391,25.391,26.855,27.344,30.762,0
1540168466.073,23.926,28.320,21.484,19.531,35.156,0
1540168466.077,26.855,28.320,25.879,13.672,20.996,0
1540168466.080,26.855,28.809,30.273,26.367,34.668,0
1540168466.084,22.949,26.367,32.227,34.668,47.363,0
1540168466.088,26.367,24.902,31.738,31.250,31.738,0
1540168466.092,34.668,29.297,28.809,25.391,8.301,0
1540168466.096,38.574,29.785,29.297,11.719,27.832,0
1540168466.100,34.668,26.855,32.715,14.648,57.617,0
1540168466.104,27.832,27.344,34.668,20.508,-13.672,0
1540168466.108,26.367,29.785,34.668,21.484,-34.668,0
1540168466.112,29.297,30.762,31.738,27.344,21.973,0
1540168466.116,30.762,29.297,31.250,25.879,62.500,0
1540168466.120,26.855,27.832,32.715,37.109,55.664,0
1540168466.123,32.227,27.344,31.738,35.645,22.949,0
1540168466.127,30.762,28.320,34.180,22.949,-31.250,0
1540168466.131,26.367,30.762,35.156,24.414,-21.973,0
1540168466.135,24.902,29.297,29.785,20.996,-6.836,0
1540168466.139,23.926,29.785,25.391,14.648,42.480,0
1540168466.143,24.414,32.715,25.879,19.531,100.586,0
1540168466.147,21.973,28.320,27.832,19.043,30.762,0
1540168466.151,22.949,24.902,28.809,16.602,-14.648,0
1540168466.155,16.113,25.391,30.273,17.578,36.621,0
1540168466.159,15.625,22.949,32.715,16.602,42.480,0
1540168466.163,19.043,24.902,34.668,21.973,24.902,0
1540168466.166,25.391,26.855,30.273,21.973,50.293,0
1540168466.170,33.691,23.926,25.879,19.043,41.016,0
1540168466.174,28.809,20.508,27.832,16.113,-21.484,0
1540168466.178,25.879,25.391,27.832,23.926,-10.254,0
1540168466.182,29.297,27.832,30.273,37.598,71.289,0
1540168466.186,25.391,23.438,35.156,35.645,73.242,0
1540168466.190,26.855,23.926,34.668,29.785,69.336,0
1540168466.194,30.273,23.438,33.203,28.320,36.621,0
1540168466.198,18.555,24.414,30.273,35.156,18.066,0
1540168466.202,16.113,23.926,28.320,32.715,-22.461,0
1540168466.205,25.879,23.438,29.785,13.672,-41.992,0
1540168466.209,30.273,23.926,28.809,12.207,-11.230,0
1540168466.213,24.414,25.879,24.414,25.391,12.207,0
1540168466.217,23.926,26.367,22.461,20.508,-11.230,0
1540168466.221,27.832,24.902,25.879,19.531,-1.465,0
1540168466.225,32.715,26.367,28.809,26.367,0.488,0
1540168466.229,38.086,27.344,29.297,20.508,-37.598,0
1540168466.233,40.527,28.320,29.785,20.020,-6.836,0
1540168466.237,40.527,27.832,26.855,26.367,38.574,0
1540168466.241,42.480,28.809,23.926,11.230,24.414,0
1540168466.245,51.758,31.738,24.902,5.371,42.480,0
1540168466.248,53.223,30.273,21.973,20.996,48.828,0
1540168466.252,43.945,30.273,20.508,21.973,15.625,0
1540168466.256,44.434,32.715,24.902,21.973,51.270,0
1540168466.260,47.852,32.715,28.809,33.691,88.379,0
1540168466.264,37.598,29.785,27.832,29.297,64.453,0
1540168466.268,25.391,24.902,31.738,38.086,10.742,0
1540168466.272,25.391,20.020,36.621,37.109,0.000,0
1540168466.276,31.738,22.461,32.715,30.273,46.875,0
1540168466.280,27.832,23.926,33.691,32.715,72.266,0
1540168466.284,16.602,18.555,35.645,26.367,54.688,0
1540168466.288,13.672,19.043,29.297,25.391,55.664,0
1540168466.291,22.461,24.414,28.320,32.227,38.574,0
1540168466.295,24.414,24.414,32.715,30.762,21.973,0
1540168466.299,26.367,23.926,34.668,31.738,86.426,0
1540168466.303,23.438,22.949,36.133,34.180,135.742,0
1540168466.307,22.949,20.020,37.109,27.832,46.875,0
1540168466.311,22.461,16.602,40.527,28.320,8.789,0
1540168466.315,18.066,16.113,38.086,33.203,21.484,0
1540168466.319,20.996,17.578,35.156,31.738,17.578,0
1540168466.323,20.508,20.996,35.645,28.320,63.965,0
1540168466.327,21.484,21.484,34.668,18.555,53.223,0
1540168466.330,29.297,18.555,36.133,20.020,-4.395,0
1540168466.334,41.504,20.020,37.109,26.855,-0.977,0
1540168466.338,34.668,19.531,35.156,20.996,47.852,0
1540168466.342,29.785,19.043,35.156,26.367,46.387,0
1540168466.346,29.785,19.043,35.156,34.668,4.883,0
1540168466.350,12.695,17.578,34.668,32.715,20.020,0
1540168466.354,17.090,22.461,34.180,39.062,36.621,0
1540168466.358,31.738,25.879,31.250,48.340,-22.461,0
1540168466.362,29.785,23.438,29.785,31.250,-14.160,0
1540168466.366,32.227,21.973,32.715,31.738,22.461,0
1540168466.370,37.109,22.461,37.109,47.363,40.039,0
1540168466.373,30.273,18.555,35.645,41.016,57.617,0
1540168466.377,34.668,15.137,33.691,37.109,41.016,0
1540168466.381,32.715,14.648,36.133,41.992,3.418,0
1540168466.385,28.809,16.113,35.645,38.574,-32.227,0
1540168466.389,41.992,17.578,31.250,36.133,-39.551,0
1540168466.393,46.875,18.066,31.738,36.621,-18.555,0
1540168466.397,35.645,19.531,36.621,35.645,24.414,0
1540168466.401,26.367,18.066,34.180,21.484,49.316,0
1540168466.405,23.926,18.066,30.273,8.789,14.160,0
1540168466.409,33.203,22.949,32.227,10.742,-24.414,0
1540168466.413,37.598,24.902,28.809,14.160,21.484,0
1540168466.416,41.016,23.926,25.879,35.645,28.320,0
1540168466.420,36.621,24.902,26.855,38.086,6.348,0
1540168466.424,29.785,23.926,25.879,15.137,36.133,0
1540168466.428,38.574,22.461,27.344,20.020,16.602,0
1540168466.432,32.227,20.020,28.320,22.949,19.531,0
1540168466.436,18.555,20.020,29.297,15.625,49.805,0
1540168466.440,23.926,22.461,30.762,20.020,5.371,0
1540168466.444,36.621,21.484,30.273,9.766,1.953,0
1540168466.448,33.691,25.391,28.809,2.441,43.945,0
1540168466.452,20.020,29.297,31.738,20.508,21.484,0
1540168466.455,25.879,27.832,33.691,7.812,17.090,0
1540168466.459,38.086,27.344,30.762,2.441,54.688,0
1540168466.463,41.992,28.320,28.320,21.484,48.340,0
1540168466.467,38.086,26.367,25.879,19.531,11.230,0
1540168466.471,33.691,26.855,26.367,20.508,22.461,0
1540168466.475,35.645,29.297,27.832,30.762,49.805,0
1540168466.479,40.039,29.785,29.297,26.367,-7.812,0
1540168466.483,41.504,31.250,29.297,32.715,-17.578,0
1540168466.487,32.715,30.273,27.832,30.273,70.801,0
1540168466.491,27.832,31.738,29.785,21.484,62.500,0
1540168466.495,36.133,33.203,30.273,24.414,9.277,0
1540168466.498,37.109,30.273,28.320,29.297,34.668,0
1540168466.502,35.156,27.832,27.832,26.855,40.527,0
1540168466.506,35.156,26.855,29.785,8.301,11.230,0
1540168466.510,30.762,26.367,27.832,4.395,55.664,0
1540168466.514,33.691,28.320,27.344,20.996,57.129,0
1540168466.518,37.109,26.367,29.297,34.668,36.621,0
1540168466.522,31.738,23.926,31.250,30.762,20.020,0
1540168466.526,31.738,26.855,33.203,32.227,53.711,0
1540168466.530,29.785,29.297,35.156,37.109,56.152,0
1540168466.534,33.203,28.809,36.133,32.227,1.465,0
1540168466.538,35.156,27.832,35.156,41.016,-3.418,0
1540168466.541,33.691,30.762,33.691,42.480,24.902,0
1540168466.545,28.809,30.273,34.180,49.316,40.039,0
1540168466.549,26.367,28.320,35.156,47.852,70.312,0
1540168466.553,23.926,28.320,33.203,14.648,90.820,0
1540168466.557,23.926,26.367,34.668,7.812,35.156,0
1540168466.561,31.250,26.855,32.715,23.438,-17.090,0
1540168466.565,37.598,26.855,31.738,33.691,13.184,0
1540168466.569,26.855,26.367,34.180,31.250,79.102,0
1540168466.573,14.160,26.367,34.180,32.715,88.379,0
1540168466.577,20.508,25.391,31.738,28.320,49.316,0
1540168466.580,25.879,26.367,30.762,37.598,63.965,0
1540168466.584,23.438,29.785,34.668,51.758,112.305,0
1540168466.588,15.625,32.227,35.156,30.273,46.875,0
1540168466.592,16.602,31.738,33.203,9.277,-13.184,0
1540168466.596,21.973,32.227,35.156,18.066,-5.371,0
1540168466.600,22.461,31.738,32.227,22.949,5.859,0
1540168466.604,18.066,27.344,30.762,23.926,33.691,0
1540168466.608,26.367,26.855,33.691,23.926,-0.977,0
1540168466.612,30.762,25.879,33.691,19.531,-10.742,0
1540168466.616,24.902,22.949,35.156,21.973,61.523,0
1540168466.620,20.020,23.926,36.133,28.320,24.902,0
1540168466.623,17.578,25.391,36.621,37.598,4.395,0
1540168466.627,18.555,22.949,38.086,23.438,48.828,0
1540168466.631,19.531,19.043,41.016,17.090,48.340,0
1540168466.635,20.996,20.996,41.016,28.320,-0.977,0
1540168466.639,23.438,23.438,37.598,27.344,-47.852,0
1540168466.643,24.902,21.973,30.762,16.602,36.621,0
1540168466.647,20.996,22.461,27.832,14.160,70.801,0
1540168466.651,24.902,22.949,34.668,19.043,36.621,0
1540168466.655,26.367,25.391,36.621,25.879,76.172,0
1540168466.659,24.902,25.879,32.715,22.949,42.480,0
1540168466.663,28.320,22.461,33.691,18.066,-20.996,1
1540168466.666,27.344,21.973,37.109,43.945,21.484,0
1540168466.670,23.926,24.414,34.668,45.410,56.641,0
1540168466.674,31.738,27.832,35.645,24.902,45.898,0
1540168466.678,32.227,28.809,35.156,23.926,57.617,0
1540168466.682,22.461,24.414,31.738,27.344,47.363,0
1540168466.686,19.043,25.391,33.203,19.531,56.641,0
1540168466.690,24.414,27.344,32.227,13.672,45.410,0
1540168466.694,26.367,25.879,26.855,14.160,9.277,0
1540168466.698,20.020,26.367,25.879,29.297,-38.574,0
1540168466.702,20.996,24.414,28.320,30.762,30.762,0
1540168466.705,29.297,23.926,31.738,12.695,67.383,0
1540168466.709,25.391,25.879,32.227,10.742,40.039,0
1540168466.713,28.809,23.926,27.344,26.855,34.668,0
1540168466.717,31.250,19.043,23.926,32.715,16.113,0
1540168466.721,23.926,20.020,28.809,20.996,34.180,0
1540168466.725,29.297,24.414,28.320,21.973,29.297,0
1540168466.729,28.320,23.438,27.344,26.367,19.043,0
1540168466.733,24.414,24.414,33.203,23.438,2.441,0
1540168466.737,25.879,24.414,34.668,25.391,0.000,0
1540168466.741,22.461,24.902,32.227,9.277,68.359,0
1540168466.745,25.391,27.344,27.832,16.113,56.152,0
1540168466.748,31.250,25.391,29.297,37.109,-20.020,0
1540168466.752,28.320,26.367,32.715,22.949,45.410,0
1540168466.756,22.461,26.367,34.180,22.461,56.152,0
1540168466.760,20.996,22.461,33.691,27.832,8.301,0
1540168466.764,21.973,22.949,36.621,26.367,31.738,0
1540168466.768,22.461,21.484,36.133,29.785,21.973,0
1540168466.772,18.066,21.484,29.785,20.996,48.340,0
1540168466.776,20.020,21.973,30.762,9.277,45.410,0
1540168466.780,24.902,20.020,32.227,6.836,72.266,0
1540168466.784,19.043,20.996,31.738,21.484,48.340,0
1540168466.788,15.625,23.438,33.691,33.691,-6.348,0
1540168466.791,15.137,26.367,32.715,17.090,33.203,0
1540168466.795,11.230,22.461,30.273,2.930,25.391,0
1540168466.799,14.648,22.461,32.715,6.348,8.301,0
1540168466.803,15.137,26.367,33.691,11.719,54.199,0
1540168466.807,20.020,25.879,34.668,31.250,11.719,0
1540168466.811,27.832,25.879,35.156,27.344,-2.930,0
1540168466.815,25.879,27.832,33.203,17.578,44.922,0
1540168466.819,16.113,27.344,35.156,31.738,20.020,0
1540168466.823,20.020,26.367,36.133,27.344,-43.457,0
1540168466.827,29.297,25.391,34.668,20.508,-16.113,0
1540168466.830,26.367,27.832,35.156,21.973,83.496,0
1540168466.834,25.879,29.785,32.227,25.879,49.316,0
1540168466.838,26.855,30.273,28.809,28.320,-31.738,0
1540168466.842,28.809,30.762,30.273,18.555,-30.273,0
1540168466.846,23.438,27.344,28.320,17.578,35.645,0
1540168466.850,22.461,29.297,29.785,32.715,40.039,0
1540168466.854,27.344,32.715,31.250,39.551,-14.648,0
1540168466.858,28.320,27.832,32.227,29.297,13.184,0
1540168466.862,32.227,24.414,34.668,37.109,65.430,0
1540168466.866,35.156,26.855,35.156,34.180,54.688,0
1540168466.870,32.715,27.832,29.297,17.578,6.836,0
1540168466.873,30.273,27.832,27.344,18.066,29.785,0
1540168466.877,34.180,32.227,27.344,29.297,63.965,0
1540168466.881,35.645,36.133,26.367,27.832,22.461,0
1540168466.885,33.203,33.691,34.668,31.738,104.004,0
1540168466.889,33.203,30.762,38.086,38.086,88.379,0
1540168466.893,37.598,29.297,34.180,38.086,16.113,0
1540168466.897,41.016,28.320,33.203,45.410,46.387,0
1540168466.901,37.598,27.344,35.156,28.320,32.715,0
1540168466.905,31.738,26.855,33.203,18.066,39.551,0
1540168466.909,33.691,27.832,30.762,22.949,20.020,0
1540168466.913,36.133,30.273,32.227,36.621,0.977,0
1540168466.916,34.180,29.297,32.227,39.551,34.180,0
1540168466.920,34.668,28.320,33.203,33.691,19.043,0
1540168466.924,36.133,28.809,31.738,27.344,-1.953,0
1540168466.928,33.691,27.832,32.715,31.738,17.090,0
1540168466.932,31.738,28.320,32.227,46.875,17.578,0
1540168466.936,31.738,31.250,28.320,23.926,57.129,0
1540168466.940,40.527,29.297,26.367,6.348,43.945,0
1540168466.944,41.504,27.344,26.855,20.508,-14.648,0
1540168466.948,34.668,27.832,26.855,28.809,28.320,0
1540168466.952,37.109,28.809,24.902,30.273,15.137,0
1540168466.955,32.715,28.809,25.879,30.762,6.348,0
1540168466.959,29.785,28.320,28.809,26.367,26.367,0
1540168466.963,25.879,25.879,29.297,43.457,-18.066,0
1540168466.967,33.203,24.414,33.691,39.062,8.301,0
1540168466.971,35.156,25.391,30.762,19.043,60.547,0
1540168466.975,27.832,23.926,26.367,18.066,89.844,0
1540168466.979,27.832,23.438,30.762,23.926,76.172,0
1540168466.983,26.855,25.879,33.691,31.738,21.973,0
1540168466.987,24.414,26.855,35.156,45.898,17.090,0
1540168466.991,19.531,23.926,33.203,39.062,66.406,0
1540168466.995,23.926,24.902,31.250,35.156,19.531,0
1540168466.998,20.996,26.855,29.785,30.762,15.137,0
1540168467.002,15.625,27.344,30.762,9.277,32.227,0
1540168467.006,22.949,27.344,30.273,14.160,41.016,0
1540168467.010,23.438,25.391,28.809,21.484,53.223,0
1540168467.014,23.438,26.367,25.879,30.762,35.645,0
1540168467.018,25.391,29.785,26.855,38.574,104.492,0
1540168467.022,26.367,29.785,31.738,27.344,113.281,0
1540168467.026,34.180,27.832,29.297,27.344,14.160,0
1540168467.030,23.438,28.320,26.367,36.133,-14.648,0
1540168467.034,19.531,29.297,26.367,23.926,-15.137,0
1540168467.038,24.414,28.809,26.367,9.766,-34.668,0
1540168467.041,24.902,25.879,28.320,16.113,-35.645,0
1540168467.045,28.809,25.879,30.273,37.109,-20.508,0
1540168467.049,29.785,28.320,29.297,35.156,14.648,0
1540168467.053,28.320,24.902,30.762,33.203,27.344,0
1540168467.057,27.832,21.484,29.785,35.156,10.254,0
1540168467.061,29.297,24.414,26.367,11.230,0.488,0
1540168467.065,36.133,24.902,29.297,16.602,-2.930,0
1540168467.069,37.598,26.367,32.227,20.508,-13.672,0
1540168467.073,32.227,28.809,29.297,13.184,23.438,0
1540168467.077,34.668,28.320,24.902,17.090,30.273,0
1540168467.080,35.156,28.320,26.855,37.109,39.062,0
1540168467.084,32.715,27.344,29.785,39.551,77.637,0
1540168467.088,27.344,24.414,30.273,40.039,122.070,0
1540168467.092,26.855,21.484,31.738,41.992,17.578,0
1540168467.096,34.668,21.973,33.691,22.949,-17.090,0
1540168467.100,42.480,24.414,28.809,24.902,-14.160,0
1540168467.104,48.340,27.344,27.832,21.973,14.648,0
1540168467.108,51.270,28.320,32.715,8.789,59.570,0
1540168467.112,47.363,26.855,33.203,2.930,48.340,0
1540168467.116,46.875,24.902,33.203,5.859,51.270,0
1540168467.120,47.852,26.367,36.621,16.602,31.250,0
1540168467.123,46.387,27.832,36.621,25.391,29.297,0
1540168467.127,45.410,27.344,32.715,29.297,27.832,0
1540168467.131,38.086,24.414,28.809,35.645,41.016,0
1540168467.135,35.156,21.484,32.227,55.176,3.418,0
1540168467.139,37.109,23.438,39.551,41.992,-7.324,0
1540168467.143,32.715,26.367,36.621,25.391,29.297,0
1540168467.147,27.344,26.855,35.156,38.574,48.828,0
1540168467.151,23.438,25.879,37.109,20.508,87.402,0
1540168467.155,23.926,25.879,37.598,21.973,84.473,0
1540168467.159,27.344,25.391,38.086,30.762,38.574,0
1540168467.163,27.344,27.344,38.574,19.043,30.273,0
1540168467.166,24.414,28.809,35.645,22.949,-31.738,0
1540168467.170,24.414,27.832,32.715,36.133,-18.555,0
1540168467.174,20.996,26.855,32.227,38.086,21.484,0
1540168467.178,19.531,24.902,29.297,22.461,41.504,0
1540168467.182,18.555,22.949,28.320,22.461,66.895,0
1540168467.186,12.695,24.902,32.715,26.367,29.297,0
1540168467.190,15.137,24.902,39.062,17.090,35.156,0
1540168467.194,25.391,22.461,38.086,21.484,16.113,0
1540168467.198,21.973,20.508,36.133,28.809,18.555,0
1540168467.202,19.531,20.996,39.551,41.504,43.457,0
1540168467.205,22.949,21.973,38.086,26.367,12.207,0
1540168467.209,21.973,21.484,35.645,10.742,-11.230,0
1540168467.213,22.461,21.484,34.180,21.973,21.484,0
1540168467.217,25.391,23.926,36.133,20.996,58.594,0
1540168467.221,20.996,27.832,37.109,24.414,10.742,0
1540168467.225,19.043,26.367,32.715,27.344,26.367,0
1540168467.229,20.020,24.902,29.785,20.996,34.180,0
1540168467.233,18.066,25.879,29.785,21.973,55.664,0
1540168467.237,18.066,27.832,31.738,33.203,77.148,0
1540168467.241,24.414,26.855,31.738,44.922,68.848,0
1540168467.245,27.344,26.855,30.762,37.598,79.590,0
1540168467.248,31.738,29.785,30.273,33.691,12.207,0
1540168467.252,33.203,29.785,33.203,30.273,-31.250,0
1540168467.256,32.227,27.344,36.133,25.879,-20.996,0
1540168467.260,38.574,25.391,36.133,37.598,0.000,0
1540168467.264,38.086,30.273,35.156,44.922,25.391,0
1540168467.268,35.645,32.227,34.668,39.551,-3.418,2
1540168467.272,37.109,29.297,36.621,32.715,7.812,0
1540168467.276,38.086,28.809,36.133,29.297,32.715,0
1540168467.280,40.039,33.203,39.551,35.156,27.832,0
1540168467.284,34.180,31.738,36.133,40.039,51.270,0
1540168467.288,30.273,26.855,24.902,36.621,38.086,0
1540168467.291,36.621,25.879,28.320,29.785,14.648,0
1540168467.295,34.668,25.879,35.156,26.367,-10.254,0
1540168467.299,31.250,25.879,34.180,35.156,-40.039,0
1540168467.303,29.785,25.391,33.203,34.668,-17.578,0
1540168467.307,28.809,25.879,30.273,27.344,27.832,0
1540168467.311,37.109,25.879,28.809,31.738,48.828,0
1540168467.315,40.039,24.902,33.203,32.715,19.531,0
1540168467.319,27.832,24.902,34.180,15.137,-3.906,0
1540168467.323,23.438,26.367,34.180,4.395,47.363,0
1540168467.327,25.879,23.438,34.668,13.184,52.246,0
1540168467.330,21.484,21.484,32.715,20.020,53.223,0
1540168467.334,28.320,26.367,32.715,16.602,44.922,0
1540168467.338,32.227,28.320,33.203,28.320,27.344,0
1540168467.342,29.297,27.344,33.691,37.109,40.527,0
1540168467.346,30.762,31.250,31.738,45.410,-19.043,0
1540168467.350,33.203,32.227,27.344,35.645,1.465,0
1540168467.354,27.832,30.762,28.809,17.578,32.715,0
1540168467.358,26.855,31.250,31.250,20.996,-0.488,0
1540168467.362,33.691,32.715,32.715,26.367,56.152,0
1540168467.366,34.180,30.273,34.668,29.785,43.945,0
1540168467.370,31.250,27.344,33.691,21.484,9.766,0
1540168467.373,35.645,24.414,35.156,26.367,-9.766,0
1540168467.377,34.668,25.391,35.156,35.645,23.438,0
1540168467.381,27.832,29.297,29.785,34.668,57.129,0
1540168467.385,28.809,29.297,31.250,44.434,56.641,0
1540168467.389,33.691,30.762,34.668,32.227,52.734,0
1540168467.393,36.621,33.691,34.180,18.555,50.781,0
1540168467.397,29.297,32.715,34.180,23.926,68.848,0
1540168467.401,21.484,31.250,33.203,26.367,54.199,0
1540168467.405,22.461,28.320,35.645,23.438,30.273,0
1540168467.409,20.020,23.926,40.527,21.973,50.781,0
1540168467.413,25.879,25.391,40.039,33.691,14.160,0
1540168467.416,29.785,29.297,36.133,30.762,-63.965,0
1540168467.420,24.902,27.832,34.180,26.855,44.922,0
1540168467.424,28.809,26.367,32.715,37.598,59.570,0
1540168467.428,22.949,26.855,29.297,37.598,20.508,0
1540168467.432,15.625,25.391,27.832,47.363,32.227,0
1540168467.436,23.438,27.832,30.273,53.223,28.809,0
1540168467.440,26.855,30.273,34.668,20.020,-34.668,0
1540168467.444,25.879,26.367,32.715,9.766,-29.785,0
1540168467.448,21.484,24.902,31.250,19.531,36.133,0
1540168467.452,19.531,25.879,31.250,20.508,38.574,0
1540168467.455,23.926,25.879,33.203,27.344,43.457,0
1540168467.459,28.809,22.461,35.645,41.016,60.059,0
1540168467.463,35.156,21.973,37.598,48.828,63.477,0
1540168467.467,33.691,25.879,33.203,47.363,54.688,0
1540168467.471,31.250,25.391,32.715,33.691,41.016,0
1540168467.475,40.039,24.414,35.645,25.391,16.113,0
1540168467.479,37.109,23.926,32.715,44.922,41.016,0
1540168467.483,30.762,22.949,32.715,48.340,20.508,0
1540168467.487,34.180,26.367,32.715,39.551,-22.461,0
1540168467.491,41.016,27.344,30.273,37.109,12.695,0
1540168467.495,42.480,26.367,31.738,42.969,42.480,0
1540168467.498,32.715,26.367,31.738,40.527,33.691,0
1540168467.502,26.367,21.973,30.273,28.320,7.324,0
1540168467.506,29.785,22.461,30.762,36.133,18.066,0
1540168467.510,33.691,24.902,31.738,35.156,15.625,0
1540168467.514,37.109,26.367,35.156,45.410,-0.488,0
1540168467.518,36.133,27.832,32.227,55.176,38.086,0
1540168467.522,29.785,25.879,28.320,30.273,61.523,0
1540168467.526,34.668,25.879,30.762,18.066,35.156,0
1540168467.530,35.645,28.320,26.855,25.879,43.457,0
1540168467.534,30.762,29.297,24.414,24.902,19.043,0
1540168467.538,30.762,26.855,30.273,27.832,-3.906,0
1540168467.541,35.156,27.832,32.227,29.297,10.254,0
1540168467.545,30.273,27.832,30.273,38.086,29.785,0
1540168467.549,25.391,27.344,32.715,42.480,-5.371,0
1540168467.553,25.391,28.320,31.250,18.555,-39.062,0
1540168467.557,26.367,29.297,26.855,5.371,8.301,0
1540168467.561,29.785,29.297,27.344,11.719,41.016,0
1540168467.565,25.879,29.785,27.832,14.160,8.789,0
1540168467.569,24.414,31.738,24.414,9.766,13.184,0
1540168467.573,27.832,31.738,25.879,18.066,32.715,0
1540168467.577,29.297,31.738,28.320,26.367,5.371,0
1540168467.580,25.879,30.762,29.297,26.855,3.418,0
1540168467.584,22.461,29.297,28.320,31.738,30.273,0
1540168467.588,17.090,27.832,25.879,24.414,62.500,0
1540168467.592,20.996,26.855,27.832,16.602,55.176,0
1540168467.596,27.832,28.809,31.250,30.762,3.418,0
1540168467.600,28.809,27.832,33.203,31.250,6.836,0
1540168467.604,33.203,26.367,33.203,22.949,50.781,0
1540168467.608,39.062,27.344,34.180,23.438,70.801,0
1540168467.612,34.180,29.785,35.645,26.367,87.402,0
1540168467.616,32.227,29.785,29.785,27.344,119.629,0
1540168467.620,32.715,28.320,28.809,35.645,114.746,0
1540168467.623,31.738,29.785,33.203,40.039,65.430,0
1540168467.627,34.180,30.762,31.738,28.809,38.574,0
1540168467.631,31.738,31.738,33.203,29.785,25.879,0
1540168467.635,33.691,32.715,37.109,41.992,49.805,0
1540168467.639,40.527,31.738,35.156,42.480,24.902,0
1540168467.643,39.062,31.738,31.250,24.902,-10.742,0
1540168467.647,33.203,34.668,31.250,20.020,2.441,0
1540168467.651,28.320,34.668,30.273,31.738,30.762,0
1540168467.655,30.273,32.227,29.297,33.691,58.594,0
1540168467.659,31.738,31.250,29.785,25.391,40.039,0
1540168467.663,29.297,31.738,30.762,18.066,30.762,0
1540168467.666,31.738,33.691,35.645,25.879,27.832,0
1540168467.670,30.273,34.668,40.527,30.762,5.371,0
1540168467.674,34.668,33.691,41.992,32.715,44.434,0
1540168467.678,36.621,31.738,34.180,38.086,48.828,0
1540168467.682,30.273,31.738,32.715,41.992,42.969,0
1540168467.686,27.344,29.297,37.109,39.551,71.289,0
1540168467.690,26.367,29.785,34.668,28.809,39.551,0
1540168467.694,25.391,31.738,31.738,24.414,-4.883,0
1540168467.698,26.855,29.785,31.738,30.762,-12.695,0
1540168467.702,26.367,28.809,32.715,44.922,26.367,0
1540168467.705,25.879,30.273,33.691,48.828,8.789,0
1540168467.709,34.180,30.273,31.738,28.809,19.043,0
1540168467.713,36.621,28.809,30.273,21.484,20.996,0
1540168467.717,34.668,27.344,33.691,29.785,30.762,0
1540168467.721,30.273,27.344,30.273,31.738,81.543,0
1540168467.725,33.691,28.320,28.320,29.297,76.172,0
1540168467.729,33.203,27.344,31.250,24.414,39.062,0
1540168467.733,34.180,26.367,32.715,38.086,-25.879,0
1540168467.737,27.832,23.438,34.668,50.293,2.441,0
1540168467.741,23.926,20.996,33.691,27.832,12.695,0
1540168467.745,28.320,23.438,32.227,30.762,4.883,0
1540168467.748,24.902,25.391,36.133,35.645,29.297,0
1540168467.752,28.809,25.879,35.645,35.156,1.465,0
1540168467.756,28.809,26.855,28.809,26.367,-12.695,0
1540168467.760,22.461,24.414,29.785,12.207,12.207,0
1540168467.764,20.020,21.484,32.715,24.414,51.270,0
1540168467.768,23.926,20.996,33.691,24.414,53.711,0
1540168467.772,17.578,20.508,33.203,16.602,40.527,0
1540168467.776,15.625,18.066,33.203,20.996,-15.137,0
1540168467.780,19.043,18.555,33.203,21.484,-23.438,0
1540168467.784,22.461,21.484,25.391,23.438,40.527,0
1540168467.788,28.320,22.949,22.949,37.109,-3.906,0
1540168467.791,33.203,26.367,28.320,35.645,-9.766,0
1540168467.795,32.715,26.367,31.250,27.832,-6.348,0
1540168467.799,21.973,24.414,28.809,28.809,-58.594,0
1540168467.803,22.461,25.391,27.832,22.949,-58.105,0
1540168467.807,26.855,23.926,28.809,19.043,-20.996,0
1540168467.811,24.902,21.484,30.762,15.137,-21.973,0
1540168467.815,25.391,21.973,28.809,19.531,10.742,0
1540168467.819,27.344,22.949,25.879,16.602,95.215,0
1540168467.823,29.785,23.926,26.855,17.090,89.844,0
1540168467.827,31.250,25.879,27.832,34.668,21.484,0
1540168467.830,28.809,27.832,27.344,30.762,37.598,0
1540168467.834,29.785,30.762,25.879,28.809,46.875,0
1540168467.838,24.902,28.320,24.414,19.531,33.203,0
1540168467.842,19.531,25.391,23.438,0.488,58.105,0
1540168467.846,23.926,28.320,25.879,10.254,72.754,0
1540168467.850,27.832,27.832,27.832,20.996,76.660,0
1540168467.854,27.832,27.344,29.785,26.367,93.262,0
1540168467.858,28.809,27.344,27.344,28.320,20.020,1
1540168467.862,31.250,22.949,25.879,30.273,-14.160,0
1540168467.866,30.762,21.973,33.691,38.574,-10.254,0
1540168467.870,29.297,24.414,34.668,31.738,-29.785,0
1540168467.873,30.762,25.879,30.762,34.668,8.301,0
1540168467.877,33.203,25.879,29.785,32.715,33.203,0
1540168467.881,39.551,26.367,33.691,30.273,12.695,0
1540168467.885,34.180,25.391,35.645,37.109,41.992,0
1540168467.889,20.996,22.461,30.762,29.297,64.453,0
1540168467.893,20.020,21.973,31.250,29.785,50.293,0
1540168467.897,22.461,24.414,32.715,38.574,51.270,0
1540168467.901,20.508,25.879,31.738,38.574,50.781,0
1540168467.905,14.648,24.902,28.320,22.949,87.891,0
1540168467.909,22.949,24.414,28.320,11.230,59.082,0
1540168467.913,23.438,22.949,32.715,18.066,40.039,0
1540168467.916,20.020,20.996,35.645,34.180,63.477,0
1540168467.920,23.926,20.996,32.227,41.504,61.035,0
1540168467.924,26.367,21.484,29.785,29.297,-17.578,0
1540168467.928,27.832,20.508,32.715,19.043,-8.789,0
1540168467.932,24.902,19.043,30.762,23.438,33.691,0
1540168467.936,21.484,17.578,29.785,29.785,0.488,0
1540168467.940,22.949,19.043,31.738,28.320,-19.043,0
1540168467.944,22.949,20.996,31.738,33.203,-3.418,0
1540168467.948,27.832,21.973,31.250,29.297,9.766,0
1540168467.952,25.391,21.973,32.227,24.414,46.875,0
1540168467.955,20.020,21.484,36.133,35.645,7.324,0
1540168467.959,26.855,22.461,35.645,38.086,-5.859,0
1540168467.963,27.344,22.949,30.762,31.738,30.273,0
1540168467.967,30.762,25.391,28.809,22.461,21.484,0
1540168467.971,32.715,28.320,28.809,23.438,-25.391,0
1540168467.975,30.762,29.297,29.785,27.832,-24.414,0
1540168467.979,30.273,28.809,30.762,38.574,20.508,0
1540168467.983,35.645,30.273,32.227,40.527,-29.297,0
1540168467.987,48.828,34.668,31.738,28.320,16.602,0
1540168467.991,57.129,35.156,30.273,25.879,62.988,0
1540168467.995,56.152,32.715,32.715,20.508,13.672,0
1540168467.998,57.617,30.273,31.250,19.531,15.625,0
1540168468.002,49.316,29.785,31.738,28.809,-12.207,0
1540168468.006,40.527,30.762,31.250,21.973,45.898,0
1540168468.010,29.297,28.809,28.320,17.578,75.684,0
1540168468.014,23.926,27.344,33.691,23.438,30.273,0
1540168468.018,30.273,25.879,34.668,25.879,18.555,0
1540168468.022,22.949,25.879,32.715,30.273,46.387,0
1540168468.026,18.066,28.320,29.785,23.926,58.594,0
1540168468.030,21.484,26.855,24.414,15.625,8.301,0
1540168468.034,22.461,26.367,26.367,24.414,10.742,0
1540168468.038,21.973,30.762,32.227,20.020,-2.930,0
1540168468.041,25.391,31.250,30.273,16.113,-24.414,0
1540168468.045,26.367,28.809,29.297,25.879,77.148,0
1540168468.049,27.344,30.762,32.715,25.879,49.316,0
1540168468.053,24.902,33.691,26.855,22.949,-10.742,0
1540168468.057,20.996,30.762,21.973,20.996,38.086,0
1540168468.061,19.043,26.367,26.367,19.043,40.039,0
1540168468.065,22.461,24.902,28.320,17.578,40.039,0
1540168468.069,27.344,26.367,28.320,22.949,68.359,0
1540168468.073,28.320,24.902,31.250,30.762,25.879,0
1540168468.077,31.738,23.926,26.855,34.180,14.648,0
1540168468.080,24.902,24.902,25.391,34.180,93.750,0
1540168468.084,27.832,28.809,31.738,41.992,64.453,0
1540168468.088,30.273,30.762,33.203,34.668,-22.949,0
1540168468.092,30.273,28.809,32.715,29.297,-62.500,0
1540168468.096,28.320,29.297,33.203,29.785,-31.738,0
1540168468.100,25.879,28.809,31.250,29.785,10.742,0
1540168468.104,24.414,27.344,28.809,28.809,30.273,0
1540168468.108,20.996,27.832,30.273,19.531,68.359,0
1540168468.112,22.949,26.855,30.273,20.508,42.969,0
1540168468.116,26.855,27.832,30.273,36.133,11.719,0
1540168468.120,28.320,26.367,32.227,42.480,28.320,0
1540168468.123,27.832,26.367,32.227,40.039,41.504,0
1540168468.127,26.855,27.832,29.785,24.902,21.484,0
1540168468.131,26.367,29.297,28.809,12.695,-8.301,0
1540168468.135,22.461,28.320,27.832,15.625,3.906,0
1540168468.139,18.066,25.391,26.367,20.020,50.781,0
1540168468.143,25.879,26.855,25.391,22.949,80.566,0
1540168468.147,30.762,28.809,22.949,28.809,33.203,0
1540168468.151,34.180,27.344,23.438,39.062,-4.883,0
1540168468.155,34.180,25.879,29.297,36.133,-6.836,0
1540168468.159,37.109,27.832,27.832,29.785,-16.602,0
1540168468.163,40.039,30.273,26.855,38.574,-36.133,0
1540168468.166,37.598,28.809,32.715,42.969,7.324,0
1540168468.170,37.598,25.879,38.086,26.367,23.438,0
1540168468.174,41.016,26.367,37.598,20.996,-21.484,0
1540168468.178,40.527,26.367,36.133,28.809,-8.301,0
1540168468.182,35.156,29.785,36.133,36.133,-19.531,0
1540168468.186,31.250,30.762,33.691,43.945,2.930,0
1540168468.190,32.715,30.273,30.762,42.480,54.688,0
1540168468.194,40.039,34.668,32.227,32.715,88.867,0
1540168468.198,39.062,32.227,34.180,27.832,59.082,0
1540168468.202,39.062,29.297,37.598,41.016,43.945,0
1540168468.205,37.109,29.297,38.086,39.551,47.852,0
1540168468.209,41.504,28.320,34.180,29.297,0.977,0
1540168468.213,44.922,29.785,34.668,23.926,14.648,0
1540168468.217,41.016,33.203,33.203,23.926,46.875,0
1540168468.221,38.574,34.668,33.691,30.273,20.996,0
1540168468.225,34.668,35.645,40.527,24.414,12.207,0
1540168468.229,35.156,35.156,36.621,23.926,31.250,0
1540168468.233,36.621,33.203,33.691,26.855,72.266,0
1540168468.237,32.715,34.668,36.621,15.625,62.012,0
1540168468.241,32.715,35.645,35.156,18.555,37.109,0
1540168468.245,34.180,32.715,31.250,19.043,47.363,0
1540168468.248,26.855,31.738,30.273,9.277,49.316,0
1540168468.252,24.902,34.180,30.762,17.578,36.133,0
1540168468.256,23.926,30.762,31.738,20.508,23.438,0
1540168468.260,23.926,29.297,30.762,21.973,-15.625,0
1540168468.264,30.762,29.785,26.855,27.832,0.488,0
1540168468.268,26.855,26.367,24.414,28.320,23.438,0
1540168468.272,19.043,25.879,27.832,21.484,-5.371,0
1540168468.276,29.785,27.832,29.785,20.996,31.250,0
1540168468.280,30.273,26.367,28.809,28.809,64.941,0
1540168468.284,22.949,25.879,28.320,26.367,12.695,0
1540168468.288,21.484,28.809,24.414,30.762,20.020,0
1540168468.291,24.414,29.785,23.438,36.133,21.484,0
1540168468.295,25.879,27.344,28.320,27.344,19.531,0
1540168468.299,22.949,26.855,30.273,25.391,65.430,0
1540168468.303,25.879,27.344,31.250,29.297,63.477,0
1540168468.307,25.879,28.809,30.762,23.438,23.438,0
1540168468.311,27.344,32.715,30.273,24.414,37.598,0
1540168468.315,29.785,30.273,31.250,32.715,24.414,0
1540168468.319,26.855,23.438,28.809,30.273,3.418,0
1540168468.323,28.809,23.438,31.250,32.227,41.504,0
1540168468.327,32.227,26.855,32.227,38.086,83.496,0
1540168468.330,32.227,28.809,26.367,33.691,42.969,0
1540168468.334,29.785,31.738,28.809,25.879,52.246,0
1540168468.338,25.879,32.227,37.109,33.691,62.012,0
1540168468.342,28.809,31.738,40.527,41.504,-4.395,0
1540168468.346,31.250,30.273,37.109,30.762,22.949,0
1540168468.350,28.809,28.809,35.156,26.367,34.668,0
1540168468.354,26.855,29.297,35.156,36.621,39.062,0
1540168468.358,27.832,28.320,29.297,34.180,76.172,0
1540168468.362,30.762,31.738,26.367,26.367,81.055,0
1540168468.366,33.203,31.738,30.762,36.621,-14.648,0
1540168468.370,20.508,27.344,37.598,31.250,2.930,0
1540168468.373,13.184,27.832,41.992,20.996,77.148,0
1540168468.377,23.438,30.762,38.574,30.762,58.105,0
1540168468.381,22.461,32.715,34.180,33.691,73.242,0
1540168468.385,20.508,32.227,32.227,35.156,58.105,1
1540168468.389,26.855,32.227,31.738,29.297,22.461,0
1540168468.393,34.180,34.180,34.180,23.438,-4.395,0
1540168468.397,33.203,33.691,36.621,36.621,22.949,0
1540168468.401,33.203,34.180,36.133,42.969,68.848,0
1540168468.405,36.133,35.645,34.180,29.785,9.766,0
1540168468.409,35.645,35.156,33.203,20.996,-25.391,0
1540168468.413,33.691,35.156,31.250,27.832,20.020,0
1540168468.416,28.320,31.250,31.738,36.621,59.082,0
1540168468.420,23.438,28.809,33.691,33.203,50.781,0
1540168468.424,28.809,28.320,32.227,26.367,51.270,0
1540168468.428,32.227,30.273,28.320,25.391,54.688,0
1540168468.432,32.227,32.715,27.832,35.156,55.176,0
1540168468.436,33.691,32.715,30.273,40.039,40.527,0
1540168468.440,33.203,32.715,31.738,29.297,18.066,0
1540168468.444,41.016,31.738,33.691,34.668,-20.996,0
1540168468.448,41.504,31.250,35.645,41.016,-21.484,0
1540168468.452,32.715,32.227,34.180,37.109,-17.578,0
1540168468.455,25.391,30.762,35.645,29.297,-0.488,0
1540168468.459,28.809,28.809,36.133,23.438,1.465,0
1540168468.463,37.109,26.855,30.273,25.391,-11.719,0
1540168468.467,32.227,24.902,25.879,21.973,38.574,0
1540168468.471,19.531,25.391,31.250,20.996,58.105,0
1540168468.475,20.020,28.809,38.574,29.297,16.113,0
1540168468.479,22.461,29.785,39.551,25.391,-5.371,0
1540168468.483,17.578,29.297,38.574,21.484,7.324,0
1540168468.487,23.926,32.715,34.668,28.809,-22.949,0
1540168468.491,31.250,32.715,32.227,34.668,5.371,0
1540168468.495,34.180,31.250,34.668,42.969,47.363,0
1540168468.498,41.504,32.715,36.133,58.105,-6.836,0
1540168468.502,47.852,34.180,37.109,44.434,-49.805,0
1540168468.506,44.922,35.156,36.133,28.320,16.602,0
1540168468.510,49.316,34.668,31.250,27.344,41.992,0
1540168468.514,49.316,32.227,33.203,25.391,10.254,0
1540168468.518,38.086,31.250,35.156,26.855,32.715,0
1540168468.522,36.133,32.227,33.203,25.879,20.020,0
1540168468.526,39.551,35.156,35.645,29.297,9.277,0
1540168468.530,33.691,37.109,34.180,41.016,15.625,0
1540168468.534,29.785,33.691,34.668,34.180,48.828,0
1540168468.538,31.250,29.785,34.180,20.020,66.895,0
1540168468.541,29.297,28.809,27.832,19.043,48.340,0
1540168468.545,25.879,29.297,27.832,25.391,42.969,0
1540168468.549,25.879,26.367,31.738,24.902,67.383,0
1540168468.553,29.785,23.926,34.668,26.855,103.516,0
1540168468.557,35.645,22.949,31.738,29.297,70.312,0
1540168468.561,36.621,24.902,31.738,25.391,-7.812,0
1540168468.565,35.645,26.367,36.133,32.227,5.859,0
1540168468.569,30.762,25.391,37.598,34.668,30.273,0
1540168468.573,24.414,25.391,36.621,30.273,-15.625,0
1540168468.577,25.879,22.949,34.668,33.203,11.230,0
1540168468.580,24.902,22.949,31.738,35.645,56.641,0
1540168468.584,24.414,25.391,32.715,34.180,61.523,0
1540168468.588,23.926,23.438,33.691,22.949,71.289,0
1540168468.592,25.391,22.949,27.344,15.625,54.199,0
1540168468.596,25.879,24.902,27.832,20.996,1.953,0
1540168468.600,28.320,23.438,33.203,22.949,-12.207,0
1540168468.604,29.297,20.996,34.180,26.855,17.090,0
1540168468.608,28.809,22.949,35.645,34.180,38.086,0
1540168468.612,30.762,24.902,35.645,36.621,29.785,0
1540168468.616,32.227,27.344,31.250,27.832,-6.836,0
1540168468.620,30.762,30.273,30.273,21.973,42.480,0
1540168468.623,28.320,31.250,33.203,30.273,68.359,0
1540168468.627,25.879,29.297,31.738,29.785,33.203,0
1540168468.631,25.391,30.762,29.297,27.832,38.574,0
1540168468.635,22.949,32.227,31.250,23.926,14.160,0
1540168468.639,18.066,27.832,29.785,14.648,5.371,0
1540168468.643,21.973,23.926,25.879,20.996,6.348,0
1540168468.647,18.555,21.484,26.855,24.414,-8.301,0
1540168468.651,14.160,20.020,29.785,25.879,11.230,0
1540168468.655,17.090,22.461,26.855,23.438,27.832,0
1540168468.659,21.973,24.902,24.902,19.531,-13.672,0
1540168468.663,23.926,26.367,30.762,20.508,-51.270,0
1540168468.666,21.484,27.344,34.668,32.227,-6.348,0
1540168468.670,30.762,26.855,35.645,37.109,-1.953,0
1540168468.674,33.691,25.391,35.156,35.156,2.930,0
1540168468.678,22.461,26.855,30.762,34.180,21.973,0
1540168468.682,21.973,28.320,28.320,33.691,24.414,0
1540168468.686,25.391,29.785,32.715,27.832,30.273,0
1540168468.690,27.344,29.785,31.250,16.113,10.742,0
1540168468.694,30.273,30.762,22.461,20.508,27.832,0
1540168468.698,22.949,28.320,23.926,45.898,57.129,0
1540168468.702,19.043,25.391,26.855,39.551,60.547,0
1540168468.705,23.926,28.320,26.855,21.973,88.867,0
1540168468.709,27.832,28.320,31.250,22.949,78.125,0
1540168468.713,28.809,28.320,33.691,29.785,38.574,0
1540168468.717,34.668,29.297,28.320,31.738,73.730,0
1540168468.721,34.180,30.762,26.367,22.949,110.352,0
1540168468.725,34.180,30.762,27.832,29.785,58.594,0
1540168468.729,29.785,26.367,24.414,44.922,38.086,0
1540168468.733,27.344,29.297,23.438,39.062,51.758,0
1540168468.737,23.438,34.180,26.367,35.645,79.102,0
1540168468.741,22.461,31.250,25.391,33.691,48.828,0
1540168468.745,27.344,28.809,23.926,15.625,16.113,0
1540168468.748,29.785,28.809,24.902,22.949,66.895,0
1540168468.752,26.367,30.273,26.367,35.645,58.105,0
1540168468.756,23.438,30.273,27.344,22.949,33.203,0
1540168468.760,28.809,30.762,24.902,16.113,29.297,0
1540168468.764,30.273,32.227,24.902,17.578,34.668,0
1540168468.768,28.809,33.203,27.344,26.367,0.000,0
1540168468.772,27.344,34.180,26.367,35.645,3.418,0
1540168468.776,28.809,30.273,26.855,29.785,21.484,0
1540168468.780,31.738,27.344,28.320,29.785,27.344,0
1540168468.784,30.273,27.832,26.367,27.344,124.512,0
1540168468.788,26.855,24.414,25.391,26.367,80.566,0
1540168468.791,26.855,23.926,26.855,31.738,26.855,0
1540168468.795,35.156,25.391,28.320,26.855,66.406,0
1540168468.799,35.645,23.926,29.785,26.855,16.602,0
1540168468.803,23.438,25.391,29.297,32.227,-6.836,0
1540168468.807,18.555,27.832,26.367,29.785,19.043,0
1540168468.811,20.508,26.367,20.996,28.320,5.859,0
1540168468.815,23.438,25.879,21.973,35.156,22.949,0
1540168468.819,20.508,24.902,26.855,34.180,56.152,0
1540168468.823,15.137,21.973,31.250,23.926,65.430,0
1540168468.827,17.578,23.438,29.785,15.625,65.918,0
1540168468.830,17.578,26.367,21.484,17.578,71.289,0
1540168468.834,18.066,25.879,23.926,30.273,75.684,0
1540168468.838,22.949,25.879,25.879,18.066,54.688,0
1540168468.842,27.344,26.367,25.391,10.254,79.102,0
1540168468.846,26.367,26.367,29.297,14.160,42.480,0
1540168468.850,22.949,24.414,30.273,22.461,11.719,0
1540168468.854,22.949,19.531,28.809,20.508,59.082,0
1540168468.858,30.762,20.508,24.414,9.766,45.898,0
1540168468.862,35.156,23.926,21.484,3.906,18.555,0
1540168468.866,39.062,26.367,24.414,11.719,26.855,0
1540168468.870,41.016,26.855,29.297,14.648,35.645,0
1540168468.873,35.156,24.902,28.809,10.254,66.895,0
1540168468.877,35.645,24.902,26.367,13.184,21.973,0
1540168468.881,37.109,29.785,27.832,10.742,-2.930,0
1540168468.885,33.691,26.367,32.227,15.137,59.082,0
1540168468.889,26.367,20.508,36.621,28.809,62.988,0
1540168468.893,24.902,22.461,34.668,27.832,17.578,0
1540168468.897,31.738,21.484,34.668,29.785,-48.828,0
1540168468.901,32.227,22.949,33.691,32.715,-16.113,0
1540168468.905,19.531,25.391,33.691,24.902,28.320,0
1540168468.909,18.066,23.438,33.203,23.438,-7.324,0
1540168468.913,17.578,23.438,29.297,27.832,-2.930,0
1540168468.916,16.113,26.855,26.367,35.645,69.336,0
1540168468.920,20.020,29.785,28.320,34.180,81.543,0
1540168468.924,25.391,27.832,34.180,31.250,-37.109,1
1540168468.928,30.762,25.879,36.133,37.109,-60.059,0
1540168468.932,29.297,26.855,34.668,34.668,0.488,0
1540168468.936,29.785,29.297,33.203,26.855,69.336,0
1540168468.940,35.156,26.367,32.715,30.273,77.637,0
1540168468.944,40.527,21.484,33.691,40.527,74.707,0
1540168468.948,37.598,20.996,30.762,41.016,42.480,0
1540168468.952,26.367,20.508,25.391,31.250,-3.906,0
1540168468.955,23.926,21.973,28.320,33.691,10.254,0
1540168468.959,31.738,25.879,32.227,38.086,0.977,0
1540168468.963,30.273,27.344,33.691,41.504,3.418,0
1540168468.967,24.414,25.391,34.668,39.551,13.672,0
1540168468.971,26.367,27.344,32.715,35.645,18.066,0
1540168468.975,30.273,29.785,31.250,23.926,43.457,0
1540168468.979,34.180,28.320,29.297,18.066,41.992,0
1540168468.983,32.715,26.367,28.809,27.832,6.348,0
1540168468.987,30.762,24.414,31.250,29.785,3.418,0
1540168468.991,35.645,25.391,28.809,26.855,37.598,0
1540168468.995,39.062,27.832,26.367,23.438,23.926,0
1540168468.998,38.086,27.832,29.297,24.414,-7.812,0
1540168469.002,27.344,28.320,31.250,32.227,27.832,0
1540168469.006,25.391,28.320,32.227,35.156,64.453,0
1540168469.010,31.250,25.391,31.738,32.715,75.684,0
1540168469.014,34.668,29.297,27.344,30.762,26.367,0
1540168469.018,34.668,30.762,27.832,24.902,2.441,0
1540168469.022,29.785,30.762,26.367,22.461,15.137,0
1540168469.026,32.227,31.250,21.484,22.949,-2.441,0
1540168469.030,41.016,29.785,23.438,29.785,12.207,0
1540168469.034,44.434,26.855,25.879,42.969,41.504,0
1540168469.038,40.039,29.297,27.832,42.480,40.527,0
1540168469.041,43.457,33.203,28.320,22.461,-1.465,0
1540168469.045,49.316,34.180,29.785,10.742,-46.387,0
1540168469.049,46.387,34.668,31.738,17.090,-1.465,0
1540168469.053,41.992,35.156,27.344,22.949,55.176,0
1540168469.057,44.434,35.156,24.414,27.344,-12.207,0
1540168469.061,46.875,34.668,26.855,26.367,22.461,0
1540168469.065,41.992,34.668,26.367,16.113,77.637,0
1540168469.069,39.551,35.645,23.926,22.949,3.418,0
1540168469.073,37.598,37.109,26.855,33.203,-10.742,0
1540168469.077,37.598,31.738,27.832,35.645,50.293,0
1540168469.080,39.551,31.738,21.484,36.133,60.547,0
1540168469.084,36.621,35.156,24.414,33.203,69.824,0
1540168469.088,35.645,31.250,30.762,37.598,67.383,0
1540168469.092,37.598,31.250,31.250,39.551,90.820,0
1540168469.096,35.645,32.715,26.367,35.156,57.617,0
1540168469.100,40.039,28.809,26.367,23.926,1.953,0
1540168469.104,42.480,26.855,29.297,7.812,13.184,0
1540168469.108,43.945,28.809,33.203,14.648,12.207,0
1540168469.112,46.387,29.785,37.109,26.367,71.289,0
1540168469.116,46.387,27.344,34.180,35.156,59.570,0
1540168469.120,40.527,25.391,34.668,36.133,4.395,0
1540168469.123,34.668,27.832,35.156,22.461,-32.227,0
1540168469.127,41.992,29.297,35.645,22.461,-30.273,0
1540168469.131,41.504,29.297,37.109,30.762,23.438,0
1540168469.135,39.551,29.297,36.621,40.527,69.824,0
1540168469.139,43.945,28.809,38.574,53.711,29.297,0
1540168469.143,44.434,28.809,39.551,42.969,39.062,0
1540168469.147,40.039,28.320,38.574,34.180,13.672,0
1540168469.151,39.062,29.297,38.574,46.387,-20.020,0
1540168469.155,37.109,30.273,37.598,50.781,-28.320,0
1540168469.159,38.086,27.344,34.668,36.133,-99.121,0
1540168469.163,36.133,27.344,34.668,33.691,-53.223,0
1540168469.166,36.133,28.320,35.156,39.551,19.043,0
1540168469.170,31.250,26.855,31.250,35.645,82.520,0
1540168469.174,28.809,27.832,27.344,39.551,63.477,0
1540168469.178,40.527,27.832,27.832,43.945,-18.555,0
1540168469.182,33.203,27.344,32.227,36.621,43.945,0
1540168469.186,19.531,29.297,34.180,43.457,97.656,0
1540168469.190,22.461,27.832,31.738,48.828,29.297,0
1540168469.194,23.926,25.391,31.250,31.738,19.043,0
1540168469.198,23.438,27.344,31.738,21.973,31.250,0
1540168469.202,19.043,27.344,28.320,23.926,11.719,0
1540168469.205,20.508,26.855,26.855,29.297,-16.602,0
1540168469.209,26.367,25.879,29.785,27.344,66.406,0
1540168469.213,20.508,23.926,31.738,29.297,43.945,0
1540168469.217,20.508,23.926,33.691,34.180,15.137,0
1540168469.221,26.367,22.949,33.203,22.949,42.480,0
1540168469.225,27.344,20.508,33.691,19.043,11.230,0
1540168469.229,23.438,22.461,33.203,25.391,50.781,0
1540168469.233,19.043,24.414,33.691,37.109,85.449,0
1540168469.237,21.973,22.461,33.691,30.762,90.820,0
1540168469.241,25.879,21.484,29.297,18.066,0.000,0
1540168469.245,30.273,21.484,31.250,24.414,-72.754,0
1540168469.248,24.414,22.949,33.691,34.668,-18.555,0
1540168469.252,11.230,22.461,33.691,32.227,34.180,0
1540168469.256,14.648,21.973,33.691,24.414,4.883,0
1540168469.260,20.996,21.973,34.180,27.832,-6.836,0
1540168469.264,18.066,23.438,36.133,45.410,-18.555,0
1540168469.268,13.184,22.949,34.668,39.551,35.156,0
1540168469.272,13.184,20.996,32.227,22.461,30.762,0
1540168469.276,21.484,20.996,35.156,34.180,7.324,0
1540168469.280,25.391,22.949,38.086,42.480,44.922,0
1540168469.284,18.555,25.879,34.668,38.086,71.289,0
1540168469.288,18.066,26.367,32.715,35.645,24.414,0
1540168469.291,22.461,23.926,32.227,26.367,1.465,0
1540168469.295,29.785,24.414,29.785,24.414,15.137,0
1540168469.299,33.203,22.461,32.227,29.785,57.129,0
1540168469.303,27.344,20.020,35.645,32.227,44.434,0
1540168469.307,25.391,20.020,36.621,26.855,0.000,0
1540168469.311,27.832,19.531,38.086,32.715,19.531,0
1540168469.315,29.297,21.484,40.527,40.527,12.695,0
1540168469.319,32.715,23.926,41.504,34.180,12.695,0
1540168469.323,34.180,25.879,43.457,47.363,1.465,0
1540168469.327,43.945,23.926,39.062,52.246,19.531,0
1540168469.330,46.387,27.832,35.645,36.133,22.949,0
1540168469.334,35.645,30.762,40.039,26.367,17.090,0
1540168469.338,32.715,28.320,39.062,28.320,13.184,0
1540168469.342,33.203,24.902,35.156,24.902,34.180,0
1540168469.346,33.203,25.391,37.598,27.832,76.660,0
1540168469.350,30.273,25.879,37.598,29.785,51.270,0
1540168469.354,25.391,23.926,33.691,16.113,23.438,0
1540168469.358,30.273,25.879,32.715,19.531,-9.277,0
1540168469.362,28.809,27.832,36.133,25.391,-10.254,0
1540168469.366,26.855,28.320,36.621,15.137,33.691,0
1540168469.370,26.855,29.297,33.691,21.484,35.156,0
1540168469.373,26.367,30.762,32.715,26.367,2.930,0
1540168469.377,31.250,28.809,34.668,36.133,-3.418,0
1540168469.381,34.668,26.367,39.551,47.363,-20.508,0
1540168469.385,29.297,25.391,38.574,33.691,-9.766,0
1540168469.389,31.738,28.809,36.133,25.391,-3.418,0
1540168469.393,36.133,29.297,39.062,23.438,77.637,0
1540168469.397,33.203,26.855,39.551,18.555,51.758,0
1540168469.401,26.855,25.391,38.086,29.785,20.508,0
1540168469.405,22.949,26.855,39.551,39.551,90.332,0
1540168469.409,28.809,26.367,37.598,40.039,83.008,0
1540168469.413,36.133,23.438,32.715,26.367,20.508,0
1540168469.416,29.297,24.902,32.715,14.160,11.719,0
1540168469.420,11.230,23.438,34.668,29.785,48.828,0
1540168469.424,10.742,22.461,33.691,31.250,48.828,0
1540168469.428,21.484,26.367,36.621,11.719,35.645,0
1540168469.432,21.484,30.273,36.133,12.695,16.602,0
1540168469.436,18.555,32.715,36.133,23.438,-22.461,0
1540168469.440,18.555,33.691,38.086,32.227,-19.043,0
1540168469.444,25.879,33.203,31.738,31.250,58.105,0
1540168469.448,29.297,29.785,32.715,35.156,35.645,0
1540168469.452,35.645,27.344,37.109,40.039,-45.410,0
1540168469.455,41.016,28.809,36.133,33.691,18.066,0
1540168469.459,33.203,26.367,36.621,25.879,58.594,0
1540168469.463,22.949,23.926,32.715,31.250,35.156,0
1540168469.467,22.461,26.855,27.832,42.480,-7.324,0
1540168469.471,27.832,30.273,29.785,45.898,23.438,0
1540168469.475,35.645,31.738,32.227,41.016,62.988,0
1540168469.479,38.574,30.273,36.621,35.645,0.977,0
1540168469.483,31.738,27.344,37.598,31.738,28.320,0
1540168469.487,28.809,27.832,38.086,30.273,29.785,0
1540168469.491,30.762,28.320,40.039,31.250,-16.113,0
1540168469.495,33.203,27.344,33.203,31.250,14.160,0
1540168469.498,28.809,27.344,31.250,29.785,47.363,0
1540168469.502,22.949,26.367,37.109,34.180,47.852,0
1540168469.506,19.531,24.902,39.551,23.926,62.988,0
1540168469.510,21.484,25.879,38.086,13.672,47.852,0
1540168469.514,23.438,26.367,33.691,32.227,22.949,0
1540168469.518,22.949,22.949,29.297,35.156,8.301,0
1540168469.522,25.879,20.996,29.785,18.555,39.062,0
1540168469.526,32.715,20.508,36.133,27.344,41.504,1
1540168469.530,31.250,20.996,37.109,36.621,41.504,0
1540168469.534,26.855,22.461,36.621,33.691,52.246,0
1540168469.538,25.391,22.949,38.574,28.320,-15.625,0
1540168469.541,27.344,22.949,41.504,26.367,-1.465,0
1540168469.545,27.832,24.902,42.480,28.320,41.016,0
1540168469.549,27.344,25.391,42.480,24.414,3.906,0
1540168469.553,25.391,23.438,42.969,23.926,-0.488,0
1540168469.557,18.555,24.902,39.551,29.297,22.949,0
1540168469.561,22.949,23.926,37.598,20.996,56.152,0
1540168469.565,25.879,25.391,40.039,5.371,69.336,0
1540168469.569,2.441,28.809,38.574,-11.719,3.906,0
1540168469.573,-5.859,28.809,36.133,-19.043,20.020,0
1540168469.577,-4.883,29.297,34.180,-12.695,49.316,0
1540168469.580,-18.066,31.738,33.691,-17.090,29.297,0
1540168469.584,-22.949,34.668,35.645,-21.973,31.738,0
1540168469.588,-26.855,37.109,33.691,-27.344,86.914,0
1540168469.592,-30.273,41.992,30.273,-30.273,126.465,0
1540168469.596,-28.320,43.945,28.320,-27.832,55.664,0
1540168469.600,-31.738,40.527,31.250,-24.902,25.391,0
1540168469.604,-46.387,41.504,31.738,-42.969,23.438,0
1540168469.608,-48.828,42.969,31.738,-62.012,38.086,0
1540168469.612,-50.781,44.922,29.297,-61.523,35.156,0
1540168469.616,-59.570,44.922,27.832,-59.570,1.465,0
1540168469.620,-62.500,41.016,30.762,-56.152,-1.465,0
1540168469.623,-56.641,42.969,27.344,-44.922,14.160,0
1540168469.627,-54.688,47.852,22.949,-35.156,43.945,0
1540168469.631,-56.152,47.363,22.461,-46.875,66.895,0
1540168469.635,-53.711,46.875,22.461,-45.898,50.781,0
1540168469.639,-51.270,50.781,23.438,-43.457,19.043,0
1540168469.643,-40.039,52.246,22.461,-48.340,-11.719,0
1540168469.647,-31.738,49.805,20.996,-43.457,-8.789,0
1540168469.651,-26.367,49.805,20.508,-42.969,75.684,0
1540168469.655,-19.531,48.828,20.996,-37.598,52.246,0
1540168469.659,-21.973,45.410,28.320,-12.695,22.461,0
1540168469.663,-23.926,44.434,34.180,-7.812,13.672,0
1540168469.666,-17.578,43.945,30.273,-24.414,-6.348,0
1540168469.670,-10.254,43.945,26.367,-12.695,9.277,0
1540168469.674,-1.465,43.945,26.855,-1.465,29.297,0
1540168469.678,3.906,44.434,31.250,2.441,54.199,0
1540168469.682,9.766,41.992,30.273,19.531,29.785,0
1540168469.686,13.184,39.062,27.344,11.230,73.242,0
1540168469.690,20.020,33.203,27.832,1.953,79.590,0
1540168469.694,28.809,29.785,29.297,20.020,38.574,0
1540168469.698,17.578,31.738,31.738,28.320,23.438,0
1540168469.702,12.207,30.273,31.738,22.461,17.578,0
1540168469.705,16.602,26.855,31.738,18.066,22.949,0
1540168469.709,26.855,25.391,33.691,7.812,20.508,0
1540168469.713,34.180,25.391,31.250,15.137,47.363,0
