timestamps,TP9,AF7,AF8,TP10,Right AUX,Marker
1540168589.998,29.297,94.727,-24.414,22.949,29.785,0
1540168590.002,24.414,88.867,-23.926,20.508,4.883,0
1540168590.006,40.039,86.914,-26.855,41.016,-3.418,0
1540168590.010,39.551,62.500,-23.438,52.734,39.062,0
1540168590.014,32.227,83.984,-15.137,38.086,44.434,0
1540168590.018,33.203,126.953,-17.578,21.973,16.602,0
1540168590.022,24.414,126.953,-12.695,14.648,34.180,0
1540168590.026,21.973,94.238,-4.883,14.648,23.438,0
1540168590.030,29.785,77.637,-8.789,23.926,1.953,0
1540168590.034,28.320,91.309,-10.742,23.926,6.348,0
1540168590.038,23.926,91.309,-4.395,13.184,37.109,0
1540168590.041,21.484,76.172,-5.859,20.020,35.156,0
1540168590.045,21.484,61.035,-0.977,31.250,62.988,0
1540168590.049,19.043,55.176,3.418,25.879,54.688,0
1540168590.053,22.949,75.684,-0.977,18.555,31.250,0
1540168590.057,27.344,97.168,-1.465,27.832,19.531,0
1540168590.061,26.367,89.844,0.000,29.785,-15.625,0
1540168590.065,21.973,74.707,-4.883,21.973,-26.367,0
1540168590.069,14.648,53.223,0.000,11.719,-38.086,0
1540168590.073,14.648,38.574,-7.324,16.602,-11.230,0
1540168590.077,14.648,53.711,-10.254,27.832,41.016,0
1540168590.080,14.160,77.148,0.977,12.695,47.852,0
1540168590.084,24.414,78.613,4.395,12.207,2.930,0
1540168590.088,22.461,69.336,5.371,19.531,-16.113,0
1540168590.092,27.832,68.848,3.906,23.438,21.973,0
1540168590.096,25.391,65.430,2.930,24.414,1.953,0
1540168590.100,20.020,59.570,7.324,23.926,23.438,0
1540168590.104,26.855,57.129,7.324,25.391,31.738,0
1540168590.108,26.855,54.199,6.348,32.715,20.996,0
1540168590.112,21.484,45.410,8.789,40.039,19.531,0
1540168590.116,23.438,38.086,7.812,39.551,40.527,0
1540168590.120,23.926,44.922,7.324,39.551,74.219,0
1540168590.123,26.367,57.617,11.230,43.945,31.738,0
1540168590.127,28.809,57.617,11.230,39.551,11.719,0
1540168590.131,20.996,48.828,11.719,35.645,40.527,0
1540168590.135,17.578,47.363,12.695,38.086,27.832,0
1540168590.139,17.090,38.574,12.695,32.715,21.484,0
1540168590.143,20.508,27.832,5.371,30.762,96.680,0
1540168590.147,18.555,39.551,4.883,26.855,101.562,0
1540168590.151,17.090,51.758,8.301,20.020,37.598,0
1540168590.155,23.926,47.852,7.812,22.949,19.531,0
1540168590.159,10.742,46.875,8.301,33.691,29.785,0
1540168590.163,11.230,47.363,8.301,34.180,30.762,0
1540168590.166,21.973,40.527,11.230,26.855,12.207,0
1540168590.170,25.391,37.598,6.836,23.438,76.660,0
1540168590.174,21.484,37.109,4.395,23.438,50.781,0
1540168590.178,21.973,34.668,11.230,19.531,-8.789,0
1540168590.182,27.344,39.062,12.207,16.602,42.969,0
1540168590.186,32.227,38.574,9.766,10.254,46.387,0
1540168590.190,37.109,36.621,7.812,10.742,13.672,0
1540168590.194,42.480,34.180,10.254,10.742,16.602,0
1540168590.198,40.527,27.832,14.648,6.348,45.898,0
1540168590.202,33.203,15.137,16.602,5.371,72.266,0
1540168590.205,34.180,21.973,20.508,7.812,97.168,0
1540168590.209,29.297,31.250,17.090,11.230,41.504,0
1540168590.213,13.672,23.926,12.695,6.348,-18.066,0
1540168590.217,2.441,20.508,13.184,1.953,-31.738,0
1540168590.221,0.000,22.461,13.672,3.418,-45.410,0
1540168590.225,4.883,21.973,19.043,-4.395,-8.301,0
1540168590.229,-10.742,19.531,16.113,-15.137,23.438,0
1540168590.233,-36.621,20.508,10.254,-23.926,-8.301,1
1540168590.237,-29.297,24.902,8.789,-23.438,-6.348,0
1540168590.241,-40.527,30.273,7.812,-33.691,26.367,0
1540168590.245,-65.918,33.691,2.930,-59.570,16.602,0
1540168590.248,-69.336,36.621,0.488,-63.965,-5.371,0
1540168590.252,-63.965,46.387,-7.324,-74.707,31.250,0
1540168590.256,-70.312,53.711,-14.160,-85.938,44.922,0
1540168590.260,-87.402,51.270,-7.812,-81.543,47.852,0
1540168590.264,-87.891,48.828,-8.301,-75.195,13.672,0
1540168590.268,-80.566,49.316,-9.766,-78.613,2.441,0
1540168590.272,-83.008,54.688,-13.184,-87.891,49.805,0
1540168590.276,-82.031,58.594,-22.949,-90.820,54.688,0
1540168590.280,-81.055,47.852,-32.227,-98.633,36.133,0
1540168590.284,-84.961,32.227,-27.344,-98.145,-3.906,0
1540168590.288,-88.867,22.461,-14.160,-99.609,19.043,0
1540168590.291,-94.238,12.207,-12.207,-104.004,56.152,0
1540168590.295,-90.820,9.277,-16.113,-93.750,-1.465,0
1540168590.299,-83.496,9.277,-16.602,-81.055,17.578,0
1540168590.303,-89.844,5.371,-16.113,-94.727,57.129,0
1540168590.307,-96.191,5.859,-19.043,-108.887,68.359,0
1540168590.311,-86.914,0.977,-18.555,-96.191,68.359,0
1540168590.315,-86.914,-1.953,-11.719,-90.820,77.637,0
1540168590.319,-88.379,-2.930,-15.137,-91.797,26.367,0
1540168590.323,-86.914,-1.953,-22.461,-90.332,-13.672,0
1540168590.327,-86.914,-6.836,-25.391,-95.703,60.547,0
1540168590.330,-81.543,-11.230,-28.320,-92.285,67.383,0
1540168590.334,-73.730,-9.277,-26.855,-88.379,29.297,0
1540168590.338,-69.824,-13.184,-23.438,-85.938,9.766,0
1540168590.342,-78.125,-17.578,-21.973,-86.914,7.812,0
1540168590.346,-69.824,-11.719,-24.414,-89.355,48.340,0
1540168590.350,-52.734,-10.742,-24.902,-91.309,68.848,0
1540168590.354,-50.781,-23.438,-22.461,-85.938,46.387,0
1540168590.358,-56.152,-34.668,-18.066,-76.172,54.199,0
1540168590.362,-62.988,-29.785,-13.672,-92.773,19.043,0
1540168590.366,-52.734,-16.602,-14.648,-101.562,-1.953,0
1540168590.370,-47.852,-15.137,-19.043,-93.262,60.059,0
1540168590.373,-42.480,-28.809,-6.836,-69.824,39.551,0
1540168590.377,-41.992,-31.738,2.441,-70.801,24.414,0
1540168590.381,-48.340,-24.414,-3.418,-86.426,48.828,0
1540168590.385,-54.688,-23.438,-4.883,-85.938,4.883,0
1540168590.389,-50.293,-20.508,-6.348,-74.219,27.832,0
1540168590.393,-49.805,-20.996,-4.395,-65.430,1.953,0
1540168590.397,-58.105,-28.320,3.906,-75.195,-2.930,0
1540168590.401,-50.293,-31.250,8.789,-77.148,26.367,0
1540168590.405,-39.062,-30.273,13.672,-67.871,39.551,0
1540168590.409,-41.016,-23.438,11.719,-66.406,39.062,0
1540168590.413,-52.734,-18.555,9.766,-76.172,27.344,0
1540168590.416,-56.641,-13.184,13.184,-79.102,30.273,0
1540168590.420,-40.527,-8.789,16.113,-65.430,11.719,0
1540168590.424,-31.250,-13.184,24.414,-53.223,27.832,0
1540168590.428,-45.898,-16.602,28.320,-64.453,-4.883,0
1540168590.432,-49.316,-20.020,24.902,-62.500,7.324,0
1540168590.436,-44.434,-23.438,26.855,-59.082,54.688,0
1540168590.440,-43.945,-20.996,27.344,-62.012,10.742,0
1540168590.444,-36.133,-18.555,29.297,-49.805,12.695,0
1540168590.448,-36.133,-14.648,36.133,-51.270,8.301,0
1540168590.452,-39.062,-12.207,37.109,-63.477,3.906,0
1540168590.455,-43.457,-8.301,39.062,-56.641,-3.906,0
1540168590.459,-43.457,-4.883,41.504,-39.062,41.016,0
1540168590.463,-31.250,-9.277,39.062,-30.273,100.098,0
1540168590.467,-29.297,-13.672,41.992,-35.156,43.457,0
1540168590.471,-39.062,-11.230,40.527,-43.945,-33.691,0
1540168590.475,-37.598,-6.836,39.062,-45.898,-20.020,0
1540168590.479,-26.855,-5.859,41.504,-30.273,56.152,0
1540168590.483,-32.227,-14.160,46.875,-24.414,60.547,0
1540168590.487,-30.273,-17.090,54.199,-35.645,31.250,0
1540168590.491,-32.715,-5.371,48.340,-43.945,11.719,0
1540168590.495,-36.621,-6.836,45.410,-39.551,12.695,0
1540168590.498,-35.645,-4.395,52.734,-25.879,50.293,0
1540168590.502,-34.180,-0.977,59.570,-28.809,46.875,0
1540168590.506,-23.438,1.953,61.523,-32.715,57.129,0
1540168590.510,-20.508,8.301,58.594,-34.668,53.223,0
1540168590.514,-18.555,5.371,57.129,-28.809,18.066,0
1540168590.518,-6.348,4.395,66.406,-10.742,-0.977,0
1540168590.522,-10.254,10.742,74.707,-13.184,-37.598,0
1540168590.526,-37.109,20.996,72.266,-26.367,4.883,0
1540168590.530,-44.434,25.391,71.777,-20.996,17.090,0
1540168590.534,-40.527,21.973,70.801,-28.320,5.859,0
1540168590.538,-38.574,24.902,64.941,-40.527,45.898,0
1540168590.541,-28.809,30.273,62.988,-31.250,39.062,0
1540168590.545,-21.973,25.391,72.266,-22.949,67.871,0
1540168590.549,-32.715,19.531,82.031,-28.320,55.664,0
1540168590.553,-50.781,20.020,79.590,-38.574,30.273,0
1540168590.557,-37.598,32.227,67.871,-36.133,30.273,0
1540168590.561,-30.273,29.297,75.195,-28.320,1.465,0
1540168590.565,-48.828,8.301,87.891,-34.180,2.441,0
1540168590.569,-22.949,22.949,87.891,-29.297,55.664,0
1540168590.573,-20.020,36.133,83.008,-30.762,22.461,0
1540168590.577,-23.926,30.273,77.637,-34.668,13.672,0
1540168590.580,-16.602,28.320,85.449,-30.762,18.066,0
1540168590.584,-16.602,27.344,91.309,-37.109,39.551,0
1540168590.588,-22.949,29.297,91.309,-34.668,-28.320,0
1540168590.592,-27.344,41.504,90.820,-39.062,-8.301,0
1540168590.596,-17.090,43.457,90.820,-47.363,67.383,0
1540168590.600,-19.531,40.527,100.586,-35.645,48.340,0
1540168590.604,-30.762,42.969,103.027,-31.250,56.641,0
1540168590.608,-24.414,45.410,99.121,-16.602,68.848,0
1540168590.612,-21.973,42.480,103.516,-20.020,49.316,0
1540168590.616,-12.207,48.828,101.074,-29.297,8.789,0
1540168590.620,-2.930,61.523,95.215,-20.020,30.273,0
1540168590.623,-2.930,62.500,97.168,-4.395,34.180,0
1540168590.627,6.836,63.477,110.352,7.324,-2.930,0
1540168590.631,2.441,62.500,119.629,-4.883,2.441,0
1540168590.635,-13.184,63.477,123.535,-15.137,-9.277,0
1540168590.639,-1.465,72.754,125.488,-13.184,-8.301,0
1540168590.643,16.602,81.543,129.395,-6.836,31.738,0
1540168590.647,4.883,82.031,136.230,-6.348,83.496,0
1540168590.651,18.066,84.961,133.301,-7.812,38.574,0
1540168590.655,25.391,92.773,133.789,-2.441,21.973,0
1540168590.659,3.418,89.355,137.207,14.160,30.762,0
1540168590.663,-10.742,79.102,137.695,12.695,26.855,0
1540168590.666,5.859,91.797,132.324,15.137,16.113,0
1540168590.670,44.434,108.398,129.395,28.809,-13.184,0
1540168590.674,37.109,97.656,136.719,32.227,52.734,0
1540168590.678,14.160,79.590,128.906,29.785,90.332,0
1540168590.682,17.090,68.359,126.465,33.691,48.340,0
1540168590.686,34.180,35.645,121.582,52.246,-13.672,0
1540168590.690,55.176,49.316,113.770,71.777,-8.301,0
1540168590.694,57.129,77.637,83.496,74.707,42.480,0
1540168590.698,58.594,57.617,75.684,88.379,24.902,0
1540168590.702,77.148,34.668,85.449,93.750,32.715,0
1540168590.705,101.074,26.855,87.891,108.887,68.848,0
1540168590.709,109.375,54.199,125.488,121.094,31.250,0
1540168590.713,94.238,36.133,122.070,112.305,-5.859,0
1540168590.717,109.375,-52.246,57.617,127.930,5.859,0
1540168590.721,146.484,-58.105,10.254,157.227,54.688,0
1540168590.725,163.086,-20.508,64.941,191.406,39.062,0
1540168590.729,149.902,-26.367,71.777,184.082,2.930,0
1540168590.733,139.648,-56.152,32.227,161.133,100.098,0
1540168590.737,194.824,-133.789,18.066,203.613,77.637,0
1540168590.741,270.020,-153.320,-42.969,275.879,-21.484,0
1540168590.745,250.000,-129.395,-14.648,250.000,5.371,0
1540168590.748,217.285,-94.238,48.340,220.703,-17.578,0
1540168590.752,246.582,-80.566,13.184,245.117,-38.574,0
1540168590.756,244.141,-128.418,-48.828,245.117,23.926,0
1540168590.760,240.234,-169.922,-89.355,248.047,-5.371,0
1540168590.764,247.070,-170.898,-111.328,257.812,-20.996,0
1540168590.768,247.070,-153.320,-130.859,253.906,-20.508,0
1540168590.772,250.000,-157.715,-156.738,256.348,48.340,0
1540168590.776,245.605,-164.551,-169.434,268.066,75.195,0
1540168590.780,247.070,-173.340,-149.902,263.672,11.230,0
1540168590.784,252.930,-171.875,-165.527,265.137,20.508,0
1540168590.788,270.020,-149.414,-193.848,277.344,2.441,0
1540168590.791,262.695,-153.320,-181.152,267.090,26.855,0
1540168590.795,258.789,-141.602,-156.250,270.020,97.168,0
1540168590.799,264.160,-156.738,-153.809,277.344,72.266,0
1540168590.803,273.438,-154.297,-137.695,285.156,26.855,0
1540168590.807,263.672,-121.582,-149.414,273.926,38.574,0
1540168590.811,252.930,-92.773,-160.156,265.625,5.371,0
1540168590.815,263.184,-83.496,-152.832,275.879,37.109,0
1540168590.819,253.906,-101.562,-126.465,261.719,87.402,0
1540168590.823,240.234,-102.539,-90.332,244.629,57.617,0
1540168590.827,250.977,-103.516,-112.793,263.672,40.527,0
1540168590.830,246.582,-111.816,-105.957,264.648,24.902,0
1540168590.834,245.605,-86.914,-79.102,255.859,13.184,0
1540168590.838,239.746,-84.961,-62.012,241.699,35.156,0
1540168590.842,241.211,-96.191,-61.035,239.746,62.012,0
1540168590.846,269.043,-86.426,-88.379,270.508,55.664,0
1540168590.850,239.258,-101.562,-64.453,240.723,50.781,0
1540168590.854,195.312,-83.008,-16.113,204.102,44.434,0
1540168590.858,198.242,-53.711,-7.812,212.402,1.953,0
1540168590.862,216.797,-44.922,-42.480,220.703,3.906,0
1540168590.866,218.750,-25.391,-39.062,217.773,25.879,0
1540168590.870,221.680,-30.762,-27.344,219.238,9.277,0
1540168590.873,209.961,-52.246,-36.621,205.566,-12.695,0
1540168590.877,194.824,-54.199,-11.719,188.965,14.160,0
1540168590.881,200.195,-60.547,-5.371,201.172,41.992,0
1540168590.885,208.984,-68.359,-31.738,218.750,7.812,0
1540168590.889,200.195,-57.129,-38.086,202.148,15.625,0
1540168590.893,202.637,-60.059,-24.414,207.520,51.758,0
1540168590.897,213.867,-61.035,-45.898,226.562,49.805,0
1540168590.901,198.730,-6.836,5.859,195.312,16.113,0
1540168590.905,172.852,5.859,55.664,159.668,20.508,0
1540168590.909,153.809,-18.066,26.855,143.066,16.602,0
1540168590.913,163.574,-45.410,-8.789,141.113,32.227,0
1540168590.916,183.105,-51.758,-49.316,158.203,19.531,0
1540168590.920,178.223,-26.855,-25.391,140.625,45.410,0
1540168590.924,170.410,-42.969,44.922,122.559,78.613,0
1540168590.928,163.086,-42.480,51.270,127.930,-10.254,0
1540168590.932,147.461,-28.809,35.156,116.211,-43.945,0
1540168590.936,139.160,-36.621,48.340,111.816,15.625,1
1540168590.940,133.789,-31.250,50.293,126.953,75.195,0
1540168590.944,127.441,-32.715,45.410,142.090,83.008,0
1540168590.948,113.770,-44.922,35.645,139.648,51.758,0
1540168590.952,104.492,-49.316,30.273,126.465,14.648,0
1540168590.955,93.262,-45.898,39.551,105.469,38.086,0
1540168590.959,83.984,-26.855,51.270,97.168,48.828,0
1540168590.963,87.402,-20.020,55.176,103.027,17.090,0
1540168590.967,82.520,-28.809,60.547,96.191,20.996,0
1540168590.971,56.152,-37.109,50.781,62.500,48.340,0
1540168590.975,43.457,-54.688,41.016,49.316,47.363,0
1540168590.979,54.688,-51.270,47.852,69.824,5.859,0
1540168590.983,38.574,-31.738,30.273,53.223,-3.418,0
1540168590.987,20.508,-34.180,5.859,24.414,21.484,0
1540168590.991,0.000,-36.133,-0.488,4.395,34.180,0
1540168590.995,-30.273,-34.668,0.488,-17.090,28.320,0
1540168590.998,-71.289,-44.434,-21.484,-61.035,41.016,0
1540168591.002,-26.855,-16.113,-13.184,-29.297,41.992,0
1540168591.006,27.832,16.602,54.199,33.691,46.875,0
1540168591.010,0.977,-4.395,30.762,15.625,20.020,0
1540168591.014,-20.508,-19.531,-29.785,-9.277,62.012,0
1540168591.018,-31.738,-11.719,-15.137,-20.996,63.477,0
1540168591.022,-51.270,-19.531,19.531,-47.363,0.000,0
1540168591.026,-67.871,-4.883,20.996,-60.547,51.270,0
1540168591.030,-68.848,-2.441,-20.508,-47.852,52.734,0
1540168591.034,-51.270,-40.527,-35.156,-40.527,24.414,0
1540168591.038,-37.598,-46.387,2.441,-46.875,44.434,0
1540168591.041,-37.598,-21.973,-4.883,-37.109,85.938,0
1540168591.045,-24.902,-4.883,-25.391,-19.043,80.566,0
1540168591.049,-8.789,-37.598,-20.508,-4.395,40.039,0
1540168591.053,-16.602,-50.293,3.906,-19.043,38.086,0
1540168591.057,-32.715,-0.977,43.945,-36.133,15.137,0
1540168591.061,-31.738,11.230,40.039,-27.344,9.277,0
1540168591.065,-27.832,2.441,0.000,-22.949,-1.465,0
1540168591.069,-11.719,-3.906,-19.043,-7.812,-4.883,0
1540168591.073,-0.977,-13.672,-5.371,5.859,35.645,0
1540168591.077,-0.977,-27.832,10.254,-7.812,21.973,0
1540168591.080,-0.977,-51.758,22.461,-9.277,48.340,0
1540168591.084,19.043,-70.801,26.855,13.184,34.180,0
1540168591.088,43.457,-66.406,15.625,36.133,54.199,0
1540168591.092,42.480,-48.828,2.930,41.992,35.156,0
1540168591.096,48.828,-25.879,13.184,41.016,-20.020,0
1540168591.100,54.199,-21.973,24.902,43.945,-21.484,0
1540168591.104,58.105,-35.645,27.344,52.246,-47.363,0
1540168591.108,68.359,-40.527,17.090,64.453,-19.531,0
1540168591.112,82.031,-41.504,9.277,78.125,38.086,0
1540168591.116,89.844,-33.691,13.184,85.449,-10.742,0
1540168591.120,87.402,-30.762,17.578,75.684,-16.113,0
1540168591.123,77.148,-40.039,21.484,64.941,91.309,0
1540168591.127,80.566,-46.875,25.391,71.777,102.539,0
1540168591.131,91.797,-48.340,17.090,84.961,22.949,0
1540168591.135,97.656,-54.688,1.465,97.168,18.066,0
1540168591.139,100.586,-42.969,4.883,83.496,54.688,0
1540168591.143,105.957,-17.578,18.555,70.801,2.441,0
1540168591.147,96.680,-20.996,37.109,70.801,5.371,0
1540168591.151,80.078,-45.410,31.250,58.105,62.988,0
1540168591.155,79.590,-54.199,23.926,53.223,76.660,0
1540168591.159,82.520,-36.133,37.109,61.035,101.562,0
1540168591.163,83.984,-34.180,32.227,67.383,80.566,0
1540168591.166,82.031,-42.480,29.785,63.477,21.484,0
1540168591.170,81.055,-49.805,18.066,53.223,-20.996,0
1540168591.174,81.543,-41.992,-11.719,67.383,17.578,0
1540168591.178,79.590,-41.016,6.348,71.777,28.320,0
1540168591.182,77.148,-39.551,51.758,65.430,29.297,0
1540168591.186,79.102,-36.133,52.734,68.359,10.254,0
1540168591.190,71.777,-41.016,35.156,63.477,-28.320,0
1540168591.194,67.383,-40.527,33.203,64.941,-6.836,0
1540168591.198,63.965,-40.039,28.809,62.500,57.129,0
1540168591.202,60.059,-32.227,14.648,52.734,93.262,0
1540168591.205,60.059,-36.621,29.297,51.758,11.719,0
1540168591.209,54.688,-35.645,40.527,64.453,-2.930,0
1540168591.213,43.945,-29.297,38.574,64.941,31.738,0
1540168591.217,55.176,-37.109,15.625,74.219,39.551,0
1540168591.221,60.059,-50.293,6.836,69.824,67.871,0
1540168591.225,40.039,-46.875,54.199,46.387,71.777,0
1540168591.229,39.551,-32.715,55.664,45.410,68.359,0
1540168591.233,35.156,-42.969,44.922,45.898,17.578,0
1540168591.237,31.250,-55.176,47.363,46.875,24.902,0
1540168591.241,42.480,-41.992,16.113,59.570,95.703,0
1540168591.245,48.828,-41.504,-6.836,71.289,35.156,0
1540168591.248,42.969,-40.527,36.133,58.594,11.719,0
1540168591.252,32.715,-26.855,73.242,37.598,59.570,0
1540168591.256,22.949,-29.785,61.035,25.879,34.668,0
1540168591.260,23.438,-38.086,49.805,32.715,42.969,0
1540168591.264,32.715,-35.645,39.062,45.410,29.297,0
1540168591.268,37.109,-37.598,25.391,37.109,-13.672,0
1540168591.272,37.109,-39.551,12.695,37.598,54.199,0
1540168591.276,29.785,-41.992,11.719,42.480,88.379,0
1540168591.280,38.086,-42.480,40.527,45.898,83.984,0
1540168591.284,42.969,-32.715,49.805,44.434,75.195,0
1540168591.288,41.016,-36.621,32.715,36.621,54.688,0
1540168591.291,41.992,-48.828,21.973,41.992,14.160,0
1540168591.295,44.922,-44.922,19.043,44.434,-33.691,0
1540168591.299,54.688,-28.809,7.812,56.641,-29.297,0
1540168591.303,49.805,-24.902,33.203,46.875,-21.484,0
1540168591.307,36.621,-24.414,53.711,20.996,9.766,0
1540168591.311,36.133,-27.344,39.551,36.133,22.461,0
1540168591.315,37.598,-38.086,37.598,47.363,-35.645,0
1540168591.319,26.855,-36.133,35.156,28.320,-10.254,0
1540168591.323,18.555,-32.227,33.203,21.484,-16.113,0
1540168591.327,25.879,-30.762,39.551,38.574,-40.039,0
1540168591.330,37.598,-32.227,30.273,46.387,42.969,0
1540168591.334,39.062,-32.715,16.602,39.551,98.145,0
1540168591.338,41.504,-31.738,29.785,40.527,89.355,0
1540168591.342,34.668,-36.621,51.270,40.039,48.828,0
1540168591.346,30.762,-36.133,44.922,27.344,-11.230,0
1540168591.350,36.621,-32.227,42.480,30.762,-63.965,0
1540168591.354,41.016,-27.832,20.020,46.387,-20.508,0
1540168591.358,48.340,-40.039,-6.836,55.176,16.602,0
1540168591.362,58.105,-68.848,16.602,56.152,41.992,0
1540168591.366,39.062,-54.688,57.129,29.785,57.129,0
1540168591.370,21.973,-21.484,76.172,7.812,33.691,0
1540168591.373,23.926,-16.602,78.125,16.602,68.359,0
1540168591.377,27.832,-20.020,73.242,23.438,81.543,0
1540168591.381,28.809,-23.926,59.082,27.344,81.543,0
1540168591.385,28.320,-30.273,49.805,31.738,29.297,0
1540168591.389,32.715,-34.668,47.852,35.156,-18.555,0
1540168591.393,29.785,-37.109,45.898,36.621,-7.812,0
1540168591.397,14.648,-41.504,40.039,25.391,0.977,0
1540168591.401,15.625,-45.898,39.062,24.902,48.340,0
1540168591.405,28.809,-42.480,40.039,41.992,35.645,0
1540168591.409,30.273,-35.645,40.039,43.945,24.902,0
1540168591.413,33.203,-31.250,40.527,39.551,52.246,0
1540168591.416,40.039,-31.250,45.898,40.039,52.734,0
1540168591.420,49.316,-31.738,44.922,38.574,70.801,0
1540168591.424,47.363,-31.738,36.621,39.551,22.461,0
1540168591.428,45.898,-25.879,29.785,48.340,-48.340,0
1540168591.432,47.852,-30.273,7.324,61.035,2.930,0
1540168591.436,43.945,-40.527,30.762,43.457,13.672,0
1540168591.440,32.715,-34.668,73.242,21.484,9.766,0
1540168591.444,32.227,-23.438,75.195,36.621,28.320,0
1540168591.448,34.180,-22.949,71.777,45.898,73.730,0
1540168591.452,30.762,-32.715,61.523,34.180,81.055,0
1540168591.455,35.645,-26.367,56.152,34.180,16.602,0
1540168591.459,34.180,-22.461,50.781,37.598,25.391,0
1540168591.463,30.273,-26.855,46.387,30.762,66.406,0
1540168591.467,26.855,-20.508,45.898,27.832,48.340,0
1540168591.471,31.738,-20.996,39.062,35.156,11.719,0
1540168591.475,36.621,-34.668,40.527,42.480,27.832,0
1540168591.479,40.039,-29.297,31.738,45.410,46.875,0
1540168591.483,39.062,-29.297,33.203,39.062,22.461,0
1540168591.487,27.832,-23.926,53.223,32.715,47.363,0
1540168591.491,20.996,-10.254,63.477,36.133,72.754,0
1540168591.495,26.367,-23.926,76.172,31.738,8.301,0
1540168591.498,32.227,-39.062,76.660,28.320,0.000,0
1540168591.502,25.879,-34.180,67.871,21.973,26.367,0
1540168591.506,18.555,-22.949,56.152,14.648,3.906,0
1540168591.510,27.344,-18.555,48.828,25.391,-9.766,0
1540168591.514,38.574,-24.414,37.598,29.785,22.461,0
1540168591.518,41.992,-22.461,30.762,33.203,33.691,0
1540168591.522,38.086,-17.090,27.344,36.133,-14.648,0
1540168591.526,29.297,-23.926,41.504,20.020,-12.695,0
1540168591.530,29.297,-26.855,66.895,14.160,83.984,0
1540168591.534,42.969,-29.785,69.336,23.926,104.492,1
1540168591.538,44.434,-25.391,59.570,12.695,41.992,0
1540168591.541,30.762,-18.555,49.805,16.113,26.367,0
1540168591.545,30.762,-14.160,33.691,31.738,76.172,0
1540168591.549,30.273,-20.508,36.133,27.344,65.918,0
1540168591.553,23.926,-31.250,51.270,23.926,60.547,0
1540168591.557,20.020,-33.691,52.246,31.250,38.086,0
1540168591.561,20.996,-30.273,58.105,37.109,35.156,0
1540168591.565,19.043,-29.297,38.086,29.297,63.477,0
1540168591.569,22.461,-29.297,39.062,27.344,51.758,0
1540168591.573,20.020,-31.738,48.340,17.090,-7.324,0
1540168591.577,15.137,-30.273,22.949,14.160,8.789,0
1540168591.580,25.879,-36.621,25.391,40.527,90.332,0
1540168591.584,26.855,-46.875,67.383,28.320,69.336,0
1540168591.588,20.508,-31.250,74.707,7.812,-42.480,0
1540168591.592,15.625,-47.363,60.547,17.578,-38.574,0
1540168591.596,16.602,-43.945,63.477,14.648,20.020,0
1540168591.600,17.578,-6.348,59.082,7.812,35.156,0
1540168591.604,18.066,-8.301,56.152,5.371,63.965,0
1540168591.608,18.066,-15.625,43.457,3.418,44.922,0
1540168591.612,20.996,-19.043,25.879,11.719,40.527,0
1540168591.616,29.297,-18.555,31.250,22.461,56.641,0
1540168591.620,28.809,-15.625,36.133,23.926,37.598,0
1540168591.623,23.926,-33.691,39.551,23.926,17.578,0
1540168591.627,21.973,-37.109,50.781,26.855,26.855,0
1540168591.631,25.879,-30.273,44.434,25.391,34.668,0
1540168591.635,30.762,-39.551,41.992,19.043,31.738,0
1540168591.639,25.879,-27.344,42.969,20.996,6.836,0
1540168591.643,29.297,-14.160,38.574,29.785,10.742,0
1540168591.647,48.340,-3.906,29.297,37.598,11.719,0
1540168591.651,56.641,-1.953,17.090,36.621,-20.020,0
1540168591.655,43.457,-17.090,36.621,20.508,-8.789,0
1540168591.659,39.062,-11.230,55.176,10.254,-22.949,0
1540168591.663,48.340,-20.020,52.734,19.531,-11.230,0
1540168591.666,53.711,-42.480,50.781,27.344,30.762,0
1540168591.670,49.316,-19.043,28.320,28.320,35.645,0
1540168591.674,45.898,-4.395,29.297,30.273,31.250,0
1540168591.678,44.922,-12.695,47.852,34.668,72.754,0
1540168591.682,24.414,-6.348,35.156,36.621,18.555,0
1540168591.686,11.230,-8.301,42.480,33.203,40.527,0
1540168591.690,18.555,-15.625,53.223,36.621,41.016,0
1540168591.694,18.555,-18.066,32.715,36.621,-30.762,0
1540168591.698,22.949,-20.020,7.812,41.992,1.953,0
1540168591.702,39.062,-55.176,19.531,52.734,1.953,0
1540168591.705,31.738,-49.316,53.711,50.781,18.066,0
1540168591.709,18.066,-8.789,37.109,32.715,61.035,0
1540168591.713,20.508,-6.348,58.105,18.066,39.062,0
1540168591.717,19.043,-4.395,69.336,16.602,20.020,0
1540168591.721,15.137,-6.348,50.293,13.672,-19.531,0
1540168591.725,13.184,-7.812,55.176,19.531,-4.883,0
1540168591.729,12.695,-13.672,50.293,22.461,-1.465,0
1540168591.733,16.113,-21.484,37.598,26.367,3.418,0
1540168591.737,27.832,-24.902,29.785,26.855,61.035,0
1540168591.741,25.879,-27.344,19.531,27.344,38.574,0
1540168591.745,24.414,-22.949,25.391,38.086,-13.672,0
1540168591.748,35.645,-23.926,39.551,41.992,-18.066,0
1540168591.752,29.785,-30.762,31.250,34.180,-5.859,0
1540168591.756,22.461,-27.344,45.410,26.855,22.461,0
1540168591.760,28.809,-28.809,50.293,33.691,51.758,0
1540168591.764,37.109,-29.785,23.926,53.223,43.457,0
1540168591.768,38.574,-28.320,20.508,50.293,45.898,0
1540168591.772,42.969,-32.715,29.297,31.250,45.898,0
1540168591.776,27.344,-30.762,51.758,25.391,7.812,0
1540168591.780,14.648,-16.113,57.617,24.902,3.906,0
1540168591.784,23.438,-13.184,34.180,18.066,40.527,0
1540168591.788,25.879,-11.719,32.715,11.719,5.859,0
1540168591.791,27.832,-16.113,35.645,15.625,-22.461,0
1540168591.795,24.414,-26.367,40.527,15.625,9.766,0
1540168591.799,18.555,-17.578,41.992,17.578,12.695,0
1540168591.803,25.879,-23.926,37.109,18.555,1.953,0
1540168591.807,11.719,-29.785,34.668,11.719,11.719,0
1540168591.811,-2.930,-24.902,23.926,-0.488,33.203,0
1540168591.815,3.418,-26.367,20.020,-4.395,48.340,0
1540168591.819,17.578,-12.695,23.438,2.930,44.434,0
1540168591.823,-4.883,-20.996,11.230,-22.461,52.246,0
1540168591.827,-7.812,-32.715,13.672,-22.949,31.250,0
1540168591.830,17.578,-0.977,30.273,2.441,38.086,0
1540168591.834,-8.789,2.930,41.992,-10.254,59.570,0
1540168591.838,-44.434,-4.395,17.090,-52.734,81.055,0
1540168591.842,-43.945,8.789,4.395,-66.406,63.965,0
1540168591.846,-48.340,5.859,15.137,-62.988,43.457,0
1540168591.850,-71.777,2.930,11.230,-79.102,29.297,0
1540168591.854,-69.824,6.348,17.578,-82.520,-9.277,0
1540168591.858,-62.988,16.602,21.484,-75.684,6.836,0
1540168591.862,-67.871,33.203,12.207,-72.754,28.809,0
1540168591.866,-81.543,30.273,-1.953,-90.820,-4.883,0
1540168591.870,-81.543,30.273,2.930,-97.168,25.391,0
1540168591.873,-66.406,37.109,14.160,-83.496,75.684,0
1540168591.877,-43.457,53.711,5.859,-62.012,3.418,0
1540168591.881,-48.340,53.223,-8.789,-60.059,24.902,0
1540168591.885,-77.148,18.066,15.137,-89.844,31.250,0
1540168591.889,-75.195,11.719,47.852,-87.891,32.227,0
1540168591.893,-57.129,29.297,32.715,-63.965,41.504,0
1540168591.897,-43.457,41.016,30.762,-66.406,27.832,0
1540168591.901,-37.598,40.039,42.969,-65.918,-16.113,0
1540168591.905,-27.832,33.691,37.598,-50.293,-53.223,0
1540168591.909,-25.391,23.438,20.508,-34.668,-19.531,0
1540168591.913,-15.625,17.578,17.090,-18.555,2.930,0
1540168591.916,0.488,17.090,26.855,-10.742,32.715,0
1540168591.920,-0.977,13.184,24.414,-17.578,40.039,0
1540168591.924,-7.324,2.441,18.066,-18.555,34.668,0
1540168591.928,3.906,-1.953,17.090,0.977,10.254,0
1540168591.932,14.160,-7.812,20.508,5.859,50.293,0
1540168591.936,3.418,-23.438,14.160,-2.441,74.707,0
1540168591.940,0.488,-22.949,19.531,4.883,59.082,0
1540168591.944,11.230,-13.672,39.551,14.160,70.312,0
1540168591.948,10.254,-13.672,37.598,14.160,-7.812,0
1540168591.952,18.555,-17.578,33.691,17.578,-10.254,0
1540168591.955,32.227,-25.391,35.645,29.785,0.488,0
1540168591.959,34.668,-33.203,24.902,41.992,-11.230,0
1540168591.963,41.504,-35.156,20.996,52.246,26.367,0
1540168591.967,49.805,-38.086,30.273,54.688,18.555,0
1540168591.971,52.734,-37.109,34.180,51.758,67.383,0
1540168591.975,50.781,-27.832,25.391,67.871,90.332,0
1540168591.979,54.199,-26.855,13.672,78.613,19.531,0
1540168591.983,64.453,-28.809,13.672,69.336,6.348,0
1540168591.987,77.148,-27.344,19.043,72.754,46.875,0
1540168591.991,69.824,-31.738,31.250,67.871,19.043,0
1540168591.995,54.199,-30.762,43.945,63.477,-24.414,0
1540168591.998,59.082,-30.762,42.480,75.195,-0.488,0
1540168592.002,66.895,-29.297,37.598,75.684,28.809,0
1540168592.006,71.777,-28.809,33.691,77.637,19.531,0
1540168592.010,77.637,-30.762,35.156,87.891,26.367,0
1540168592.014,84.473,-37.598,27.832,88.379,69.824,0
1540168592.018,80.566,-33.203,27.832,82.520,73.242,0
1540168592.022,81.543,-25.391,30.762,84.961,10.742,0
1540168592.026,88.379,-27.832,18.555,94.727,-2.441,0
1540168592.030,77.148,-18.066,23.926,83.496,53.223,0
1540168592.034,70.312,-20.508,27.832,76.660,52.246,0
1540168592.038,78.613,-21.484,15.137,75.195,36.133,0
1540168592.041,68.848,-19.043,32.715,71.777,-7.812,0
1540168592.045,70.801,-22.949,49.316,78.125,4.883,0
1540168592.049,77.148,-19.531,42.969,77.148,49.805,0
1540168592.053,76.660,-18.555,35.156,69.336,21.484,0
1540168592.057,75.684,-20.020,37.109,70.312,-23.438,0
1540168592.061,75.684,-20.996,29.297,68.359,5.371,0
1540168592.065,75.684,-20.020,21.973,64.941,30.273,0
1540168592.069,73.242,-20.020,28.320,63.477,-21.484,0
1540168592.073,69.336,-17.090,28.809,66.895,-8.789,0
1540168592.077,68.359,-13.672,19.531,71.289,46.875,0
1540168592.080,76.660,-10.742,20.996,72.266,28.809,0
1540168592.084,69.824,-9.277,32.227,65.918,-9.277,1
1540168592.088,66.406,-17.578,33.691,61.523,28.809,0
1540168592.092,69.336,-20.020,23.438,69.824,85.938,0
1540168592.096,65.918,-9.766,19.531,69.824,74.707,0
1540168592.100,58.594,-6.348,28.809,60.547,46.875,0
1540168592.104,59.570,-5.859,34.668,52.246,-13.672,0
1540168592.108,56.641,-8.301,28.809,52.246,3.418,0
1540168592.112,54.199,-14.160,21.484,51.758,75.684,0
1540168592.116,59.082,-9.277,22.461,52.246,42.480,0
1540168592.120,57.129,-7.324,30.273,48.340,-25.391,0
1540168592.123,47.852,-12.695,31.250,47.363,-15.137,0
1540168592.127,39.062,-11.719,25.391,46.875,27.344,0
1540168592.131,40.039,-8.301,20.996,45.410,-2.930,0
1540168592.135,46.875,-4.883,17.578,44.434,4.883,0
1540168592.139,43.457,-6.348,17.578,39.062,35.156,0
1540168592.143,37.109,-5.371,20.508,41.504,22.461,0
1540168592.147,41.992,-4.395,20.996,46.875,56.152,0
1540168592.151,45.410,-7.812,25.391,49.316,11.230,0
1540168592.155,43.457,-1.465,35.156,46.387,-47.852,0
1540168592.159,33.203,-1.953,32.715,35.645,10.742,0
1540168592.163,34.180,-14.648,21.973,30.762,49.805,0
1540168592.166,38.086,-11.719,20.996,32.715,71.289,0
1540168592.170,38.574,-0.977,24.414,31.738,62.500,0
1540168592.174,38.086,-0.977,29.297,30.273,5.859,0
1540168592.178,28.809,-4.395,22.461,26.367,-7.812,0
1540168592.182,33.203,-1.953,13.672,22.949,29.785,0
1540168592.186,44.922,-3.418,8.301,22.461,66.406,0
1540168592.190,51.270,-6.348,9.766,25.879,53.223,0
1540168592.194,35.156,-5.859,16.602,29.297,5.859,0
1540168592.198,26.367,5.371,13.672,36.133,2.441,0
1540168592.202,57.129,-5.859,3.418,43.945,29.297,0
1540168592.205,71.289,-31.738,-0.488,50.781,43.945,0
1540168592.209,44.922,-3.418,22.461,40.527,57.617,0
1540168592.213,24.902,15.625,32.715,26.367,105.469,0
1540168592.217,32.227,1.953,34.668,24.414,110.352,0
1540168592.221,41.504,1.953,38.086,24.414,27.344,0
1540168592.225,42.969,6.348,22.949,36.621,-17.090,0
1540168592.229,35.156,3.906,22.949,37.598,52.246,0
1540168592.233,30.273,2.441,33.691,23.926,73.242,0
1540168592.237,40.527,6.348,23.438,28.320,49.316,0
1540168592.241,51.270,-8.789,0.488,47.363,20.996,0
1540168592.245,38.574,-13.184,6.836,46.387,-41.992,0
1540168592.248,31.250,5.859,39.062,32.227,21.973,0
1540168592.252,36.133,15.137,48.828,17.578,70.801,0
1540168592.256,39.551,10.254,29.785,20.508,43.945,0
1540168592.260,35.156,1.465,21.973,31.738,50.293,0
1540168592.264,23.926,0.488,27.344,27.832,22.949,0
1540168592.268,31.738,-1.465,29.297,20.508,17.578,0
1540168592.272,32.227,-2.930,22.949,17.090,20.996,0
1540168592.276,31.738,3.418,26.367,23.438,41.016,0
1540168592.280,36.621,4.883,16.602,28.320,131.836,0
1540168592.284,40.039,6.348,2.441,27.344,127.441,0
1540168592.288,44.434,5.859,3.418,31.250,59.082,0
1540168592.291,36.133,-8.789,14.648,35.156,68.359,0
1540168592.295,33.691,-12.207,22.461,33.203,65.918,0
1540168592.299,34.180,5.859,23.438,33.691,-28.809,0
1540168592.303,28.809,11.719,17.578,32.227,-37.598,0
1540168592.307,37.109,13.184,8.301,37.598,7.324,0
1540168592.311,42.480,13.184,14.160,41.016,25.391,0
1540168592.315,41.016,4.395,15.137,41.992,10.742,0
1540168592.319,39.551,0.977,16.113,42.969,28.809,0
1540168592.323,34.180,2.930,15.137,38.574,41.504,0
1540168592.327,34.180,0.977,6.836,39.551,57.129,0
1540168592.330,20.020,-4.395,3.418,46.875,39.551,0
1540168592.334,25.879,-6.836,6.348,41.016,11.719,0
1540168592.338,48.828,-1.465,0.488,36.621,7.324,0
1540168592.342,47.363,0.488,-5.371,41.504,-3.418,0
1540168592.346,42.480,-4.883,0.977,36.621,25.879,0
1540168592.350,42.480,-2.441,5.371,34.668,8.301,0
1540168592.354,38.086,-7.324,8.301,35.645,38.086,0
1540168592.358,35.156,-13.184,3.418,37.598,40.527,0
1540168592.362,40.527,-7.324,0.000,42.480,26.855,0
1540168592.366,34.668,-1.953,7.324,41.992,20.508,0
1540168592.370,36.621,-6.836,12.207,36.621,26.855,0
1540168592.373,35.645,-10.742,11.719,33.203,21.973,0
1540168592.377,29.297,-1.465,8.789,41.992,10.254,0
1540168592.381,41.992,1.465,7.324,50.293,43.457,0
1540168592.385,37.598,-4.395,6.836,37.109,30.762,0
1540168592.389,41.992,-7.324,7.324,29.297,16.602,0
1540168592.393,57.129,4.395,5.859,34.180,56.152,0
1540168592.397,62.500,9.766,1.465,32.227,52.246,0
1540168592.401,67.383,7.812,-2.441,28.320,21.484,0
1540168592.405,56.152,7.812,-4.883,27.344,22.461,0
1540168592.409,49.805,5.859,8.789,29.785,9.277,0
1540168592.413,48.340,4.883,17.578,33.203,23.438,0
1540168592.416,43.945,3.418,19.531,38.086,32.227,0
1540168592.420,33.691,0.977,21.484,29.785,9.277,0
1540168592.424,14.160,0.000,15.137,24.902,27.344,0
1540168592.428,11.719,2.441,14.160,33.203,69.336,0
1540168592.432,22.949,1.465,7.812,34.180,65.430,0
1540168592.436,31.738,-0.977,1.953,33.203,42.480,0
1540168592.440,22.949,-3.906,15.137,33.691,47.363,0
1540168592.444,24.414,-3.906,17.090,36.621,18.555,0
1540168592.448,29.785,-3.418,11.719,40.039,18.555,0
1540168592.452,24.414,2.930,17.090,42.969,13.184,0
1540168592.455,23.926,6.836,6.348,41.016,-57.617,0
1540168592.459,23.438,2.441,1.953,39.062,17.578,0
1540168592.463,22.949,9.277,9.277,30.762,82.520,0
1540168592.467,23.438,12.207,9.766,22.461,79.590,0
1540168592.471,21.484,4.883,8.301,26.367,96.191,0
1540168592.475,16.602,8.301,5.371,28.809,65.918,0
1540168592.479,24.902,14.160,3.418,35.156,75.684,0
1540168592.483,29.785,10.742,6.348,38.086,60.059,0
1540168592.487,28.809,7.812,7.324,29.785,-10.254,0
1540168592.491,28.809,5.371,-0.488,30.762,-23.926,0
1540168592.495,28.320,4.395,-0.977,37.598,31.738,0
1540168592.498,37.598,3.906,10.742,35.156,78.125,0
1540168592.502,47.852,7.812,6.348,36.621,-2.441,0
1540168592.506,43.945,5.371,-0.488,39.062,-33.691,0
1540168592.510,39.062,-11.230,7.324,39.551,12.207,0
1540168592.514,49.805,1.465,7.812,54.688,33.203,0
1540168592.518,47.363,13.184,2.441,51.758,31.250,0
1540168592.522,29.297,3.906,5.859,28.320,-33.203,0
1540168592.526,31.250,1.465,2.441,31.738,-48.828,0
1540168592.530,43.457,7.812,9.766,47.852,30.762,0
1540168592.534,42.480,12.695,22.461,42.969,69.824,0
1540168592.538,41.016,9.766,19.531,34.668,39.551,0
1540168592.541,35.156,10.254,13.672,34.668,27.344,0
1540168592.545,32.715,9.277,5.371,33.691,21.484,0
1540168592.549,43.945,9.277,8.789,41.016,24.414,0
1540168592.553,44.922,8.789,15.625,34.180,41.016,0
1540168592.557,33.691,8.301,17.090,29.297,32.715,0
1540168592.561,34.668,9.766,8.301,32.715,28.320,0
1540168592.565,41.504,8.301,0.488,37.109,44.922,0
1540168592.569,41.504,5.859,7.324,34.180,29.785,0
1540168592.573,39.551,5.371,11.230,26.855,-1.465,0
1540168592.577,39.551,7.324,5.371,31.250,19.531,0
1540168592.580,39.551,10.254,-2.930,30.762,52.734,0
1540168592.584,42.969,11.719,-2.441,27.832,39.062,0
1540168592.588,47.363,16.602,-0.977,29.785,71.289,0
1540168592.592,46.875,17.578,-4.395,33.203,106.445,0
1540168592.596,49.805,15.137,-5.859,37.598,88.379,0
1540168592.600,48.828,17.090,-9.766,39.551,71.777,0
1540168592.604,47.363,14.648,-13.184,31.738,14.648,0
1540168592.608,51.270,12.695,-16.113,34.180,44.922,0
1540168592.612,61.523,1.953,-22.949,45.410,43.457,0
1540168592.616,64.941,3.418,-14.648,45.898,-4.883,0
1540168592.620,54.688,16.602,9.766,27.832,5.371,0
1540168592.623,50.293,19.043,20.020,19.043,25.391,0
1540168592.627,53.223,26.367,8.789,25.391,-23.438,0
1540168592.631,56.152,30.273,6.836,29.785,-29.297,0
1540168592.635,52.246,16.602,12.207,30.762,37.598,0
1540168592.639,48.340,10.742,9.277,30.273,42.480,0
1540168592.643,53.223,24.414,9.277,37.598,-13.672,0
1540168592.647,53.711,28.320,2.441,43.945,10.742,0
1540168592.651,52.734,20.508,-9.766,35.156,2.441,0
1540168592.655,44.922,13.184,-0.488,27.344,13.184,0
1540168592.659,37.109,11.719,12.695,33.691,41.016,0
1540168592.663,40.039,11.230,13.184,34.180,-30.762,0
1540168592.666,29.785,9.766,8.301,23.926,-53.711,0
1540168592.670,23.438,8.789,5.371,15.625,41.504,1
1540168592.674,24.902,7.812,0.000,19.531,23.926,0
1540168592.678,29.297,7.324,-4.883,29.785,-21.973,0
1540168592.682,29.297,3.906,1.953,29.297,55.664,0
1540168592.686,26.855,9.277,6.348,26.855,71.289,0
1540168592.690,32.227,5.371,9.766,35.645,-27.832,0
1540168592.694,30.762,-3.418,16.113,38.574,24.414,0
1540168592.698,26.855,4.883,5.371,35.156,85.938,0
1540168592.702,30.762,15.137,-13.184,33.203,53.223,0
1540168592.705,33.691,15.137,-6.348,33.691,20.508,0
1540168592.709,33.203,2.441,18.066,33.203,33.691,0
1540168592.713,42.969,8.301,20.996,37.598,67.383,0
1540168592.717,46.387,16.113,13.672,38.086,69.824,0
1540168592.721,32.227,7.324,16.602,30.273,67.871,0
1540168592.725,22.461,2.441,17.578,30.762,51.758,0
1540168592.729,28.809,5.371,16.602,35.645,11.230,0
1540168592.733,33.203,11.719,12.207,36.133,-12.695,0
1540168592.737,39.062,8.789,16.602,36.621,11.230,0
1540168592.741,44.922,0.000,15.137,43.457,-27.344,0
1540168592.745,46.875,-0.977,8.789,51.758,15.137,0
1540168592.748,45.410,7.324,23.926,58.105,35.156,0
1540168592.752,40.527,18.555,22.949,42.480,16.113,0
1540168592.756,30.273,20.508,18.066,23.926,-1.953,0
1540168592.760,25.391,18.066,27.344,23.926,11.230,0
1540168592.764,30.762,16.113,23.438,31.738,-28.320,0
1540168592.768,34.180,11.719,20.020,35.645,-42.969,0
1540168592.772,39.551,17.578,23.438,34.668,-10.742,0
1540168592.776,35.156,21.484,12.695,40.039,16.113,0
1540168592.780,31.738,22.461,-4.395,51.758,4.395,0
1540168592.784,32.227,14.160,15.137,51.758,9.277,0
1540168592.788,30.273,5.371,31.250,35.645,82.031,0
1540168592.791,24.902,5.371,24.902,30.273,78.613,0
1540168592.795,20.508,9.277,19.531,31.738,68.359,0
1540168592.799,27.832,13.672,13.184,38.086,58.105,0
1540168592.803,34.668,12.695,13.672,36.621,58.105,0
1540168592.807,28.809,12.695,10.254,30.762,89.355,0
1540168592.811,24.902,6.348,1.465,29.785,6.836,0
1540168592.815,27.832,-4.395,11.719,31.250,-60.059,0
1540168592.819,30.762,5.859,17.578,30.273,38.086,0
1540168592.823,34.180,18.066,-17.090,31.738,58.594,0
1540168592.827,32.715,16.602,-4.395,37.109,55.664,0
1540168592.830,32.227,1.953,24.414,33.203,87.891,0
1540168592.834,25.391,-20.996,19.531,19.043,36.133,0
1540168592.838,16.602,3.906,24.414,13.184,15.625,0
1540168592.842,17.578,31.250,14.160,24.414,70.801,0
1540168592.846,17.090,21.973,5.371,29.297,85.938,0
1540168592.850,15.137,17.578,1.465,25.391,64.941,0
1540168592.854,22.461,20.508,-1.953,24.902,58.594,0
1540168592.858,30.762,20.508,6.348,32.227,56.641,0
1540168592.862,28.809,16.113,1.465,35.156,53.223,0
1540168592.866,19.531,13.184,0.000,26.855,36.133,0
1540168592.870,17.578,11.230,-2.930,14.160,8.789,0
1540168592.873,26.367,11.719,-5.371,13.672,-15.137,0
1540168592.877,29.297,14.160,5.371,23.438,-17.578,0
1540168592.881,24.414,10.742,16.113,21.484,-13.184,0
1540168592.885,28.809,11.719,16.113,15.625,-11.230,0
1540168592.889,33.203,14.160,14.648,22.461,-4.883,0
1540168592.893,32.227,16.113,14.160,32.715,25.391,0
1540168592.897,31.250,15.625,6.348,31.738,49.805,0
1540168592.901,31.250,11.719,9.277,28.320,25.879,0
1540168592.905,35.645,12.207,3.418,34.180,22.461,0
1540168592.909,44.434,12.207,-15.625,50.781,65.918,0
1540168592.913,53.223,0.977,-7.324,58.594,78.613,0
1540168592.916,49.316,-5.371,22.461,47.852,65.918,0
1540168592.920,33.691,12.207,28.809,27.832,49.316,0
1540168592.924,23.438,24.902,27.344,26.855,11.230,0
1540168592.928,22.461,18.066,24.902,35.645,-3.906,0
1540168592.932,28.809,14.160,9.766,41.016,5.371,0
1540168592.936,38.574,19.531,17.090,42.480,-12.207,0
1540168592.940,41.016,13.184,18.066,43.945,22.949,0
1540168592.944,41.016,6.348,-3.906,49.316,58.105,0
1540168592.948,36.621,13.672,-1.953,43.945,70.312,0
1540168592.952,33.691,22.949,3.906,31.738,82.031,0
1540168592.955,32.715,7.324,0.000,28.809,46.387,0
1540168592.959,43.457,-2.930,-1.465,44.922,18.555,0
1540168592.963,38.574,16.113,19.531,39.551,-11.719,0
1540168592.967,17.578,26.367,31.738,17.090,29.785,0
1540168592.971,19.531,19.531,18.555,16.113,87.891,0
1540168592.975,23.926,14.160,18.555,19.531,84.961,0
1540168592.979,20.996,3.418,14.648,14.648,3.906,0
1540168592.983,28.320,-21.484,9.277,20.996,3.418,0
1540168592.987,32.227,-0.488,6.836,19.043,34.180,0
1540168592.991,33.203,31.738,3.906,22.461,-2.930,0
1540168592.995,30.762,13.672,3.418,23.926,59.082,0
1540168592.998,11.230,15.137,-6.836,6.836,70.312,0
1540168593.002,9.766,33.691,-11.230,6.348,-9.766,0
1540168593.006,22.949,31.738,0.488,26.367,-30.762,0
1540168593.010,-0.488,27.344,-7.324,10.254,33.691,0
1540168593.014,-20.020,20.508,-19.043,-16.113,44.434,0
1540168593.018,-9.766,24.902,-7.324,-10.742,83.008,0
1540168593.022,-2.441,40.039,4.883,-5.859,120.605,0
1540168593.026,-19.043,41.504,-2.441,-17.578,57.617,0
1540168593.030,-36.133,36.621,-9.277,-34.668,76.660,0
1540168593.034,-56.641,47.363,-12.695,-52.246,48.340,0
1540168593.038,-79.590,53.223,-28.320,-77.637,49.805,0
1540168593.041,-64.941,50.293,-19.043,-72.266,37.598,0
1540168593.045,-60.059,55.176,-9.766,-63.477,4.395,0
1540168593.049,-69.824,58.594,-21.973,-74.707,56.152,0
1540168593.053,-83.984,57.129,-31.250,-93.262,-15.137,0
1540168593.057,-79.590,62.988,-20.996,-86.426,-26.367,0
1540168593.061,-66.895,66.895,-13.184,-76.172,43.945,0
1540168593.065,-73.242,64.453,-25.391,-82.031,54.199,0
1540168593.069,-75.195,62.012,-23.926,-81.055,26.367,0
1540168593.073,-54.199,65.430,-7.324,-68.848,-28.320,0
1540168593.077,-48.828,57.129,-5.371,-56.641,38.574,0
1540168593.080,-49.316,45.410,-9.277,-44.922,130.859,0
1540168593.084,-32.715,53.223,-9.277,-40.527,88.867,0
1540168593.088,-24.902,51.270,-16.602,-42.480,49.316,0
1540168593.092,-25.879,45.410,-7.812,-33.203,46.875,0
1540168593.096,-17.090,36.621,8.301,-25.391,32.227,0
1540168593.100,-4.395,31.250,5.371,-15.137,10.742,0
1540168593.104,5.371,41.504,5.859,-11.230,19.531,0
1540168593.108,9.766,40.527,12.207,-8.301,9.277,0
1540168593.112,15.137,36.621,14.160,3.906,-41.504,0
1540168593.116,16.113,32.715,16.113,10.254,15.625,0
1540168593.120,24.902,31.738,11.719,5.859,20.508,0
1540168593.123,40.039,28.320,7.324,7.812,19.043,0
1540168593.127,48.828,21.484,10.742,18.555,-4.395,0
1540168593.131,55.176,19.531,6.836,16.113,-41.016,0
1540168593.135,66.406,16.602,-0.977,25.879,11.719,0
1540168593.139,66.895,21.973,8.301,36.621,15.625,0
1540168593.143,55.176,23.438,0.977,37.598,40.527,0
1540168593.147,45.410,17.578,-6.836,44.434,26.855,0
1540168593.151,44.922,19.531,16.113,48.828,27.832,0
1540168593.155,47.852,20.996,10.254,45.410,35.645,0
1540168593.159,45.898,19.043,-13.184,53.223,50.293,0
1540168593.163,47.852,11.230,4.395,59.570,68.848,0
1540168593.166,52.246,8.789,30.273,61.035,41.504,0
1540168593.170,50.293,15.625,27.344,51.758,54.688,0
1540168593.174,49.316,10.254,17.578,46.875,18.555,0
1540168593.178,48.340,9.766,12.207,58.594,12.207,0
1540168593.182,46.387,12.695,8.301,60.059,30.762,0
1540168593.186,54.199,-0.488,9.277,54.688,43.945,0
1540168593.190,58.594,-6.348,14.648,56.641,56.152,0
1540168593.194,51.758,10.254,16.602,62.500,9.766,0
1540168593.198,51.758,29.297,15.625,63.477,4.395,0
1540168593.202,56.152,32.227,14.648,61.523,-3.418,0
1540168593.205,57.129,22.461,8.789,60.547,-51.270,0
1540168593.209,52.734,17.090,3.906,63.965,-52.246,0
1540168593.213,48.340,17.090,12.207,63.477,-19.531,0
1540168593.217,47.852,16.602,18.066,59.082,-4.883,0
1540168593.221,52.734,16.113,19.043,58.105,-10.254,0
1540168593.225,57.617,18.066,20.508,62.988,28.809,0
1540168593.229,57.129,10.742,6.348,67.871,3.418,0
1540168593.233,51.270,2.930,4.395,68.848,-4.395,0
1540168593.237,55.664,11.719,15.137,57.617,53.223,0
1540168593.241,58.594,20.508,15.625,52.246,50.781,0
1540168593.245,55.176,18.555,17.578,58.594,37.109,0
1540168593.248,53.711,15.625,18.555,63.477,-7.812,0
1540168593.252,48.340,15.625,17.090,55.664,-4.395,0
1540168593.256,49.316,16.602,15.137,47.363,109.375,0
1540168593.260,49.316,14.160,4.395,47.852,130.371,0
1540168593.264,49.805,13.184,3.418,48.340,1.953,1
1540168593.268,52.734,9.277,12.695,44.922,13.672,0
1540168593.272,56.641,8.301,13.184,40.039,36.621,0
1540168593.276,57.129,13.184,15.137,39.062,19.043,0
1540168593.280,57.617,15.625,15.625,46.875,62.012,0
1540168593.284,55.664,12.695,11.230,43.457,81.543,0
1540168593.288,52.246,1.953,2.930,31.738,49.316,0
1540168593.291,54.688,8.789,2.930,44.922,11.230,0
1540168593.295,51.758,21.973,18.555,47.852,19.531,0
1540168593.299,38.086,16.113,16.113,32.227,48.340,0
1540168593.303,35.156,14.160,8.789,26.367,49.805,0
1540168593.307,40.039,12.695,14.160,30.273,10.254,0
1540168593.311,44.434,11.230,14.648,27.832,58.105,0
1540168593.315,42.480,17.578,19.531,20.508,74.219,0
1540168593.319,41.016,22.949,19.043,25.391,-14.160,0
1540168593.323,44.434,27.344,18.066,30.273,14.160,0
1540168593.327,42.480,26.855,14.648,30.762,41.016,0
1540168593.330,43.945,26.367,19.043,40.527,8.789,0
1540168593.334,43.945,22.461,23.438,33.691,-8.789,0
1540168593.338,43.457,20.996,20.996,20.508,4.395,0
1540168593.342,48.340,24.414,20.020,26.855,17.090,0
1540168593.346,42.969,21.973,14.160,30.762,-13.184,0
1540168593.350,41.992,19.043,12.207,27.832,-22.461,0
1540168593.354,51.758,19.043,7.812,30.273,31.738,0
1540168593.358,50.293,20.996,6.348,38.086,44.922,0
1540168593.362,50.781,25.879,16.602,37.109,42.480,0
1540168593.366,53.711,26.855,19.531,34.668,55.664,0
1540168593.370,49.805,25.879,9.277,34.668,72.754,0
1540168593.373,43.945,22.461,9.766,30.273,60.059,0
1540168593.377,41.992,16.113,16.602,33.691,50.293,0
1540168593.381,41.504,18.066,14.648,44.922,37.109,0
1540168593.385,43.457,21.973,7.324,37.598,43.457,0
1540168593.389,43.945,12.207,5.371,27.832,35.645,0
1540168593.393,42.969,10.742,8.301,37.598,-0.488,0
1540168593.397,42.480,15.137,4.395,38.086,59.570,0
1540168593.401,40.039,17.090,-0.488,31.738,69.336,0
1540168593.405,46.875,20.508,3.906,37.109,10.254,0
1540168593.409,51.758,22.461,3.418,46.875,0.977,0
1540168593.413,38.086,21.484,0.000,46.875,-1.953,0
1540168593.416,23.926,11.719,7.324,40.039,29.785,0
1540168593.420,32.227,10.254,7.812,42.969,-18.555,0
1540168593.424,32.227,14.160,9.766,40.527,-61.035,0
1540168593.428,21.484,10.742,11.719,30.762,5.371,0
1540168593.432,23.926,7.812,11.230,33.203,35.645,0
1540168593.436,27.832,16.113,17.578,31.250,49.316,0
1540168593.440,34.180,19.043,20.020,40.039,65.918,0
1540168593.444,37.598,19.043,18.066,54.199,7.324,0
1540168593.448,37.598,19.531,17.578,48.828,-88.379,0
1540168593.452,37.109,15.625,14.648,42.480,-54.199,0
1540168593.455,33.691,13.184,13.184,39.551,62.012,0
1540168593.459,34.180,16.113,13.672,42.969,90.332,0
1540168593.463,35.156,20.020,12.695,42.969,48.340,0
1540168593.467,38.086,16.602,11.719,38.086,43.457,0
1540168593.471,40.527,15.625,11.719,38.574,33.691,0
1540168593.475,40.039,18.555,9.766,39.062,28.809,0
1540168593.479,37.109,19.531,9.766,42.969,2.930,0
1540168593.483,30.762,20.508,15.137,42.969,11.230,0
1540168593.487,37.598,20.996,12.695,39.062,3.906,0
1540168593.491,46.387,21.484,11.230,46.387,-33.691,0
1540168593.495,43.457,19.531,11.719,54.688,0.488,0
1540168593.498,41.992,18.066,14.648,50.293,60.059,0
1540168593.502,45.898,9.277,18.555,49.805,56.152,0
1540168593.506,46.875,16.602,7.812,52.734,49.316,0
1540168593.510,47.363,36.621,3.906,51.270,29.297,0
1540168593.514,44.922,38.574,17.578,44.922,6.836,0
1540168593.518,37.598,35.645,14.648,44.922,2.441,0
1540168593.522,35.645,31.250,14.648,39.062,10.254,0
1540168593.526,30.273,26.367,22.949,26.855,70.801,0
1540168593.530,34.180,26.367,22.949,33.691,97.168,0
1540168593.534,35.156,24.414,20.996,28.320,57.129,0
1540168593.538,31.738,24.414,15.137,14.648,-25.391,0
1540168593.541,40.039,25.391,10.742,16.113,7.324,0
1540168593.545,38.574,17.090,7.812,20.508,0.488,0
1540168593.549,25.391,19.531,1.953,24.414,13.672,0
1540168593.553,24.902,26.855,-2.441,25.391,35.156,0
1540168593.557,29.297,20.996,11.230,24.414,20.508,0
1540168593.561,28.809,22.949,14.160,26.855,64.941,0
1540168593.565,26.855,21.484,0.977,28.320,3.906,0
1540168593.569,34.668,11.230,4.395,20.020,-20.996,0
1540168593.573,43.945,23.438,10.254,26.855,54.199,0
1540168593.577,40.527,36.621,3.906,32.227,21.484,0
1540168593.580,29.785,32.227,-9.277,20.020,26.855,0
1540168593.584,30.762,25.879,-3.418,19.531,92.285,0
1540168593.588,28.320,20.508,8.789,18.066,28.320,0
1540168593.592,20.508,25.879,8.789,15.625,-0.977,0
1540168593.596,21.973,28.320,6.348,17.578,-28.809,0
1540168593.600,27.344,20.996,2.930,19.043,-1.465,0
1540168593.604,38.574,20.508,-11.230,20.996,36.133,0
1540168593.608,39.062,15.625,-13.672,30.762,-23.926,0
1540168593.612,26.367,16.602,4.883,33.691,16.602,0
1540168593.616,20.996,23.438,7.812,22.461,23.438,0
1540168593.620,26.855,22.949,5.371,16.602,29.297,0
1540168593.623,29.785,25.391,-0.488,20.020,51.758,0
1540168593.627,27.344,25.879,-4.395,29.785,41.016,0
1540168593.631,32.227,27.344,-8.301,27.832,16.602,0
1540168593.635,35.645,23.438,-4.883,21.973,16.602,0
1540168593.639,33.691,20.020,10.254,28.320,20.020,0
1540168593.643,31.250,20.020,10.254,30.762,-46.875,0
1540168593.647,31.250,23.926,10.254,31.738,12.695,0
1540168593.651,41.016,26.367,12.207,37.598,77.637,0
1540168593.655,44.922,19.043,4.883,34.180,55.664,0
1540168593.659,41.992,13.672,0.488,33.691,47.852,0
1540168593.663,50.781,19.043,-11.719,47.363,44.434,0
1540168593.666,46.875,28.320,-13.672,48.828,53.711,0
1540168593.670,39.551,32.227,5.371,32.227,65.918,0
1540168593.674,38.086,22.949,3.418,26.855,80.566,0
1540168593.678,30.762,18.066,-12.207,34.180,66.406,0
1540168593.682,27.832,22.461,-1.465,29.785,37.109,0
1540168593.686,31.250,20.020,5.859,20.020,26.367,0
1540168593.690,31.738,22.461,-3.906,18.066,45.410,0
1540168593.694,31.738,26.367,-9.277,22.461,96.680,0
1540168593.698,32.227,22.461,-5.371,29.297,77.637,0
1540168593.702,37.109,25.391,-14.648,36.133,1.953,0
1540168593.705,42.480,28.320,-20.996,32.227,5.859,0
1540168593.709,37.109,21.484,-14.160,17.090,35.645,0
1540168593.713,26.855,19.531,-13.184,16.113,13.672,0
1540168593.717,25.391,20.996,-9.766,17.578,6.836,0
1540168593.721,32.227,20.508,-7.324,17.090,34.668,0
1540168593.725,34.180,26.855,-3.418,21.484,16.602,0
1540168593.729,36.133,27.832,-4.883,23.438,37.109,0
1540168593.733,38.086,19.043,-6.348,27.344,70.312,0
1540168593.737,40.039,18.555,-8.789,29.297,39.551,0
1540168593.741,37.598,22.949,-14.160,30.273,-5.859,0
1540168593.745,30.762,25.391,-8.789,29.785,-5.371,0
1540168593.748,30.273,28.809,-12.695,31.738,39.551,0
1540168593.752,28.809,27.344,-24.414,26.367,11.230,0
1540168593.756,21.973,22.461,-9.766,20.020,-35.645,0
1540168593.760,20.996,20.020,4.395,25.391,12.695,0
1540168593.764,23.438,19.043,1.953,29.297,33.203,0
1540168593.768,29.297,24.902,0.488,32.227,56.152,0
1540168593.772,31.738,28.320,0.488,29.297,16.602,0
1540168593.776,27.832,22.949,-1.953,32.715,23.926,0
1540168593.780,31.738,22.949,-1.465,38.574,31.738,0
1540168593.784,33.203,26.367,-8.301,31.738,17.090,0
1540168593.788,31.738,27.344,-5.371,24.414,62.988,0
1540168593.791,26.855,27.344,1.465,26.367,69.336,0
1540168593.795,22.949,13.672,1.953,28.809,33.203,0
1540168593.799,27.832,14.160,2.441,28.809,-12.695,0
1540168593.803,31.738,26.367,0.977,24.414,19.531,1
1540168593.807,30.762,24.902,7.812,25.879,42.969,0
1540168593.811,26.855,23.438,7.324,33.691,9.277,0
1540168593.815,23.438,21.484,1.953,28.320,20.996,0
1540168593.819,23.926,19.531,2.930,20.508,55.176,0
1540168593.823,26.855,20.508,0.000,23.438,41.504,0
1540168593.827,31.250,26.367,0.977,25.879,68.359,0
1540168593.830,31.250,26.855,5.371,23.438,16.113,0
1540168593.834,27.832,20.996,2.441,22.461,0.000,0
1540168593.838,32.715,18.555,3.418,26.855,60.059,0
1540168593.842,34.668,18.066,5.371,25.391,18.066,0
1540168593.846,32.227,25.391,0.000,19.043,-17.578,0
1540168593.850,33.203,34.668,0.000,18.555,-12.207,0
1540168593.854,34.180,32.227,-1.465,16.602,19.531,0
1540168593.858,34.668,25.391,0.488,12.695,41.504,0
1540168593.862,43.945,29.785,4.395,11.719,47.363,0
1540168593.866,56.152,31.738,-5.859,14.648,57.129,0
1540168593.870,59.082,33.691,-14.648,11.230,67.871,0
1540168593.873,49.805,36.621,-2.441,14.160,38.086,0
1540168593.877,41.016,35.156,4.883,23.438,27.344,0
1540168593.881,37.109,33.691,-2.930,23.438,31.738,0
1540168593.885,38.086,27.344,4.883,27.344,20.996,0
1540168593.889,32.715,28.320,10.254,27.344,55.664,0
1540168593.893,22.949,30.762,7.324,29.297,40.039,0
1540168593.897,20.020,27.832,2.930,32.227,21.973,0
1540168593.901,21.484,27.344,-2.930,31.738,58.594,0
1540168593.905,29.785,28.809,-10.254,33.691,68.848,0
1540168593.909,29.785,28.320,-12.207,34.180,41.016,0
1540168593.913,30.762,29.785,-7.324,32.227,-8.301,0
1540168593.916,30.273,28.809,-9.277,30.762,-9.277,0
1540168593.920,32.227,28.809,-13.672,31.250,46.387,0
1540168593.924,36.133,28.809,-13.184,25.879,19.043,0
1540168593.928,34.180,26.855,-12.695,25.391,-10.742,0
1540168593.932,34.668,27.832,-8.301,31.738,63.965,0
1540168593.936,32.227,26.855,-7.324,29.785,48.828,0
1540168593.940,27.832,23.926,-9.766,29.297,15.137,0
1540168593.944,28.809,24.414,-10.254,38.574,30.762,0
1540168593.948,28.809,28.809,-14.160,35.156,-1.465,0
1540168593.952,26.367,32.227,-19.531,24.902,-12.207,0
1540168593.955,33.203,31.250,-18.555,25.391,35.645,0
1540168593.959,33.691,23.438,-16.602,27.344,80.078,0
1540168593.963,22.949,17.090,-14.160,19.043,77.637,0
1540168593.967,23.438,28.320,-12.695,21.973,-9.277,0
1540168593.971,30.273,30.273,-21.484,23.926,-30.762,0
1540168593.975,26.855,27.344,-16.602,24.414,5.371,0
1540168593.979,23.926,33.203,-8.789,29.785,-25.391,0
1540168593.983,29.785,35.645,-8.301,37.598,2.930,0
1540168593.987,36.621,33.203,-9.277,36.621,11.719,0
1540168593.991,29.785,27.832,-12.695,24.902,4.395,0
1540168593.995,23.438,20.508,-11.719,30.273,62.988,0
1540168593.998,20.508,21.484,-11.230,27.344,39.551,0
1540168594.002,26.855,20.996,-18.066,18.066,9.277,0
1540168594.006,37.598,20.020,-23.438,25.391,-10.742,0
1540168594.010,32.715,26.367,-4.883,27.344,-6.836,0
1540168594.014,29.297,28.809,3.418,24.414,-21.484,0
1540168594.018,33.203,26.367,0.000,18.555,51.758,0
1540168594.022,36.133,28.809,3.418,23.438,99.121,0
1540168594.026,37.598,28.809,-0.488,36.621,76.172,0
1540168594.030,41.504,27.832,-6.836,39.551,77.637,0
1540168594.034,45.410,31.250,-2.930,35.156,-2.441,0
1540168594.038,42.969,33.691,0.977,30.762,-33.691,0
1540168594.041,39.551,29.297,1.465,28.809,30.762,0
1540168594.045,41.016,25.391,0.000,31.738,53.711,0
1540168594.049,38.574,26.855,-0.977,28.809,36.133,0
1540168594.053,43.945,28.809,3.418,27.344,28.809,0
1540168594.057,43.945,32.227,-5.371,31.250,12.207,0
1540168594.061,40.527,32.227,-13.184,34.668,36.621,0
1540168594.065,41.016,27.832,2.441,37.109,44.434,0
1540168594.069,35.645,24.902,0.000,29.785,41.504,0
1540168594.073,35.645,25.879,-9.277,26.855,35.156,0
1540168594.077,40.039,30.273,-5.371,33.203,29.297,0
1540168594.080,41.016,35.645,-5.859,30.273,63.965,0
1540168594.084,33.691,31.738,-0.488,18.066,37.598,0
1540168594.088,32.227,31.738,5.859,16.602,-35.645,0
1540168594.092,30.762,27.832,5.371,18.555,7.812,0
1540168594.096,26.855,22.949,1.465,16.602,68.848,0
1540168594.100,29.297,26.367,3.418,18.555,57.129,0
1540168594.104,36.621,26.367,-3.906,21.973,-31.250,0
1540168594.108,39.551,27.344,-14.648,26.367,-18.555,0
1540168594.112,28.320,31.738,-7.812,23.438,21.484,0
1540168594.116,27.832,31.738,1.465,22.461,58.105,0
1540168594.120,33.203,26.855,10.254,22.461,15.137,0
1540168594.123,30.273,23.926,15.625,28.320,-46.875,0
1540168594.127,31.738,27.832,13.184,33.691,-2.930,0
1540168594.131,28.809,28.320,13.672,32.227,57.129,0
1540168594.135,24.902,25.879,15.625,28.320,110.352,0
1540168594.139,22.949,27.832,10.254,21.973,54.199,0
1540168594.143,19.531,31.250,8.789,20.508,9.277,0
1540168594.147,20.020,36.621,7.812,24.414,82.031,0
1540168594.151,22.461,36.621,4.395,24.414,50.781,0
1540168594.155,23.926,35.156,3.418,15.625,35.156,0
1540168594.159,22.461,30.762,0.977,20.508,73.242,0
1540168594.163,22.949,29.785,-1.465,29.297,38.574,0
1540168594.166,22.461,33.203,-5.859,27.344,40.039,0
1540168594.170,24.902,33.203,2.441,24.414,61.523,0
1540168594.174,22.949,29.785,12.695,20.508,36.621,0
1540168594.178,21.484,29.785,8.789,25.391,50.293,0
1540168594.182,24.414,28.809,8.789,30.273,68.848,0
1540168594.186,27.344,21.973,17.578,26.367,54.688,0
1540168594.190,28.809,30.762,15.137,26.367,11.230,0
1540168594.194,21.973,39.062,14.648,27.344,-29.785,0
1540168594.198,16.602,38.086,16.602,16.113,41.504,0
1540168594.202,18.555,34.668,8.301,11.230,63.477,0
1540168594.205,19.043,29.785,-1.953,12.207,33.203,0
1540168594.209,20.020,31.250,2.930,15.625,9.277,0
1540168594.213,21.973,29.297,9.277,16.602,68.848,0
1540168594.217,20.020,24.902,7.812,14.160,32.227,0
1540168594.221,25.391,25.879,4.395,20.996,-38.574,0
1540168594.225,21.973,29.297,1.465,27.344,-41.992,0
1540168594.229,21.973,30.273,-0.977,30.762,-16.113,0
1540168594.233,20.996,26.367,4.395,33.203,35.645,0
1540168594.237,23.438,27.832,9.766,30.273,61.523,0
1540168594.241,25.391,29.297,7.324,27.344,38.086,0
1540168594.245,19.531,23.438,7.812,25.391,35.156,0
1540168594.248,23.438,21.484,7.324,28.809,4.883,0
1540168594.252,27.344,21.973,7.812,30.273,-35.645,0
1540168594.256,29.785,24.902,11.230,28.320,20.508,0
1540168594.260,28.809,26.367,12.207,31.738,62.500,0
1540168594.264,24.902,24.414,6.836,29.785,47.363,0
1540168594.268,28.320,22.949,6.836,32.227,-7.812,0
1540168594.272,34.668,24.414,8.301,33.203,-12.207,0
1540168594.276,32.227,27.344,7.812,32.715,28.809,0
1540168594.280,36.621,28.809,8.301,34.668,-3.906,0
1540168594.284,44.434,28.809,10.254,32.715,3.906,0
1540168594.288,42.480,36.133,6.348,31.738,89.355,0
1540168594.291,36.621,36.621,5.371,32.227,60.547,0
1540168594.295,35.156,32.227,10.254,36.133,44.434,0
1540168594.299,36.133,36.621,9.766,36.621,95.703,0
1540168594.303,30.762,35.645,11.719,28.320,54.688,0
1540168594.307,28.320,30.273,14.160,27.344,21.484,0
1540168594.311,29.785,32.227,13.184,32.227,63.965,0
1540168594.315,25.879,34.668,13.672,27.344,87.402,0
1540168594.319,28.809,35.156,7.324,26.855,54.688,0
1540168594.323,34.180,36.621,5.859,36.133,73.730,0
1540168594.327,31.738,37.598,11.230,34.668,73.730,0
1540168594.330,35.645,34.668,18.066,31.250,12.207,0
1540168594.334,28.320,29.297,26.367,22.949,-5.859,0
1540168594.338,19.043,30.273,28.809,14.648,4.395,0
1540168594.342,18.066,28.320,23.438,17.090,45.410,0
1540168594.346,22.949,26.367,14.160,23.438,72.754,0
1540168594.350,26.367,25.879,14.648,23.926,84.473,0
1540168594.354,18.555,22.949,17.090,16.602,57.129,0
1540168594.358,15.625,22.949,14.648,20.996,60.547,0
1540168594.362,23.438,25.391,7.812,29.785,23.438,0
1540168594.366,28.320,23.926,5.859,38.574,30.762,0
1540168594.370,34.180,32.227,14.160,40.039,40.039,0
1540168594.373,27.832,29.785,18.066,30.762,-17.090,0
1540168594.377,20.020,20.508,10.742,31.250,-2.441,0
1540168594.381,24.414,27.832,8.789,31.738,-16.113,0
1540168594.385,30.762,31.250,13.184,25.391,-5.371,0
1540168594.389,28.320,31.738,11.230,19.043,12.207,0
1540168594.393,20.996,32.227,9.766,17.578,35.645,0
1540168594.397,20.508,29.785,12.695,22.461,42.969,0
1540168594.401,22.461,29.785,8.301,23.438,17.578,0
1540168594.405,33.203,27.344,5.371,20.508,28.809,0
1540168594.409,27.832,26.367,5.859,20.020,53.711,0
1540168594.413,15.625,29.785,12.207,21.484,62.012,0
1540168594.416,14.648,28.809,13.672,18.555,40.039,0
1540168594.420,17.090,28.809,7.324,13.672,34.668,0
1540168594.424,18.066,26.367,5.859,20.020,11.719,0
1540168594.428,18.555,27.344,11.719,30.762,28.809,0
1540168594.432,15.625,28.320,17.090,30.273,31.738,0
1540168594.436,14.648,26.855,9.766,25.879,10.254,0
1540168594.440,15.137,24.902,2.930,21.973,41.992,0
1540168594.444,16.113,26.855,3.906,23.438,-6.348,0
1540168594.448,16.113,33.203,4.883,33.203,-23.438,0
1540168594.452,12.695,30.762,2.930,22.949,46.387,0
1540168594.455,15.625,30.273,2.441,13.184,4.395,0
1540168594.459,14.160,31.738,0.000,15.137,-44.922,0
1540168594.463,19.531,33.203,-0.977,16.602,29.785,0
1540168594.467,23.438,32.715,4.395,20.020,13.672,0
1540168594.471,29.297,31.250,8.789,19.531,-15.137,0
1540168594.475,29.297,31.738,4.883,27.832,23.926,0
1540168594.479,29.785,34.180,5.371,38.086,21.973,0
1540168594.483,34.668,35.156,7.324,36.133,12.207,1
1540168594.487,30.273,29.785,-2.930,24.902,50.781,0
1540168594.491,31.250,22.949,1.465,20.996,35.645,0
1540168594.495,32.715,24.414,14.648,29.785,-10.742,0
1540168594.498,21.484,26.367,11.230,30.762,36.621,0
1540168594.502,18.555,26.367,4.883,23.438,59.082,0
1540168594.506,27.344,29.297,-1.465,22.461,15.137,0
1540168594.510,26.367,31.738,0.000,29.785,22.949,0
1540168594.514,27.344,33.203,6.836,39.062,17.090,0
1540168594.518,30.273,29.785,8.789,36.621,-19.531,0
1540168594.522,21.973,24.414,8.789,25.391,-20.996,0
1540168594.526,18.066,23.926,4.883,27.832,65.430,0
1540168594.530,28.809,27.832,3.906,33.203,70.801,0
1540168594.534,32.715,29.785,7.812,35.645,1.465,0
1540168594.538,32.227,31.250,6.836,34.180,44.922,0
1540168594.541,34.668,33.203,2.930,29.297,62.500,0
1540168594.545,34.180,28.320,1.465,33.691,80.078,0
1540168594.549,27.832,21.484,-1.465,36.133,4.395,0
1540168594.553,31.738,19.043,-0.488,38.574,-42.969,0
1540168594.557,35.645,20.996,2.441,35.156,21.973,0
1540168594.561,34.180,29.297,9.766,36.133,39.551,0
1540168594.565,36.133,30.762,11.719,43.457,48.828,0
1540168594.569,37.109,27.344,9.766,43.457,33.203,0
1540168594.573,37.109,26.855,6.348,36.621,31.738,0
1540168594.577,35.156,29.297,5.859,30.762,21.973,0
1540168594.580,35.156,31.738,8.789,32.715,49.316,0
1540168594.584,31.738,32.227,6.348,32.227,84.961,0
1540168594.588,26.855,31.250,6.348,23.438,77.148,0
1540168594.592,24.902,28.809,2.441,22.461,51.758,0
1540168594.596,28.320,30.273,7.812,28.320,42.969,0
1540168594.600,34.668,30.762,1.953,25.391,3.418,0
1540168594.604,41.016,29.297,-5.859,22.949,47.363,0
1540168594.608,42.480,30.762,1.953,22.949,58.105,0
1540168594.612,42.969,33.203,0.977,20.508,-15.625,0
1540168594.616,46.387,33.203,1.465,13.184,-42.969,0
1540168594.620,49.316,38.574,7.324,11.230,-37.109,0
1540168594.623,49.805,40.527,5.371,19.531,32.715,0
1540168594.627,48.828,37.109,4.395,24.414,54.199,0
1540168594.631,42.969,35.645,4.883,22.949,39.551,0
1540168594.635,30.762,30.273,6.348,17.090,60.547,0
1540168594.639,28.809,29.297,7.812,20.508,15.137,0
1540168594.643,33.203,30.762,0.000,28.320,21.484,0
1540168594.647,25.879,27.832,1.465,28.320,83.008,0
1540168594.651,23.438,27.832,11.719,28.320,78.125,0
1540168594.655,28.320,24.902,23.926,29.785,76.660,0
1540168594.659,17.578,26.855,21.973,27.344,21.484,0
1540168594.663,14.648,28.320,16.602,27.344,78.613,0
1540168594.666,31.250,31.250,22.949,37.598,124.023,0
1540168594.670,32.715,35.156,0.488,27.832,43.945,0
1540168594.674,17.578,33.203,-15.625,10.742,-7.324,0
1540168594.678,15.625,32.715,18.066,12.695,4.883,0
1540168594.682,20.020,29.785,27.832,17.578,19.531,0
1540168594.686,20.020,28.320,16.113,14.160,66.406,0
1540168594.690,20.020,30.273,14.648,14.160,50.781,0
1540168594.694,17.578,30.273,15.137,24.902,5.859,0
1540168594.698,14.648,26.367,12.695,29.785,12.207,0
1540168594.702,19.043,20.996,16.113,27.832,-42.480,0
1540168594.705,28.809,24.414,14.160,29.785,-45.898,0
1540168594.709,33.691,29.297,10.742,31.250,-4.883,0
1540168594.713,37.598,27.344,9.277,31.250,-1.465,0
1540168594.717,31.250,24.414,12.207,32.227,-31.250,0
1540168594.721,39.062,34.668,12.207,34.668,-12.695,0
1540168594.725,47.852,22.461,3.906,37.109,23.438,0
1540168594.729,34.668,0.977,17.090,37.598,36.133,0
1540168594.733,30.273,16.113,24.414,38.574,-4.395,0
1540168594.737,34.180,32.227,14.648,36.133,-6.348,0
1540168594.741,34.180,37.109,20.508,27.832,41.992,0
1540168594.745,30.762,37.598,23.926,23.438,24.902,0
1540168594.748,31.250,33.691,9.277,23.438,40.039,0
1540168594.752,36.133,34.668,8.301,20.020,55.176,0
1540168594.756,41.504,41.016,10.742,23.926,51.758,0
1540168594.760,42.480,35.645,10.742,33.203,11.719,0
1540168594.764,41.992,23.926,12.207,37.598,-12.207,0
1540168594.768,37.109,25.391,3.906,35.156,17.090,0
1540168594.772,36.133,32.715,-6.348,28.320,41.504,0
1540168594.776,40.039,31.738,0.000,27.344,85.938,0
1540168594.780,41.016,37.109,5.859,28.320,83.984,0
1540168594.784,38.574,36.133,-1.953,25.391,40.527,0
1540168594.788,40.527,28.809,-3.906,21.973,66.895,0
1540168594.791,38.086,31.250,-8.301,23.926,33.691,0
1540168594.795,37.109,28.320,-1.953,28.320,37.598,0
1540168594.799,34.668,23.926,9.277,24.902,77.637,0
1540168594.803,30.762,28.809,10.742,19.531,73.242,0
1540168594.807,28.320,29.297,10.254,19.043,58.105,0
1540168594.811,27.832,28.809,8.789,21.484,3.906,0
1540168594.815,32.227,30.273,12.207,27.344,7.812,0
1540168594.819,36.133,28.320,9.277,24.414,50.293,0
1540168594.823,37.598,25.391,0.977,25.391,48.828,0
1540168594.827,36.621,27.832,-1.465,34.668,14.160,0
1540168594.830,38.086,27.832,7.324,35.156,-3.418,0
1540168594.834,34.180,21.484,6.348,28.320,-21.973,0
1540168594.838,34.180,21.484,4.395,21.973,-6.348,0
1540168594.842,35.645,26.367,6.836,23.926,-19.531,0
1540168594.846,43.457,31.250,3.906,26.367,-9.277,0
1540168594.850,50.293,31.738,7.324,28.809,51.270,0
1540168594.854,40.527,27.832,12.207,25.391,50.781,0
1540168594.858,35.645,27.832,8.301,26.367,38.574,0
1540168594.862,39.551,25.879,0.488,35.156,41.992,0
1540168594.866,36.621,29.785,2.441,36.621,45.898,0
1540168594.870,39.551,36.133,11.719,33.203,42.480,0
1540168594.873,43.457,36.621,18.066,36.133,24.414,0
1540168594.877,40.039,37.109,6.836,40.527,60.059,0
1540168594.881,39.551,35.156,3.418,39.062,64.453,0
1540168594.885,33.203,23.438,13.184,36.133,-15.137,0
1540168594.889,28.809,21.484,5.371,29.785,-9.766,0
1540168594.893,30.762,30.273,5.371,30.273,33.203,0
1540168594.897,26.855,29.297,2.930,30.273,83.496,0
1540168594.901,30.273,32.715,3.906,30.762,53.711,0
1540168594.905,34.668,34.180,9.277,30.762,19.043,0
1540168594.909,33.203,32.227,5.859,27.344,38.086,0
1540168594.913,34.180,32.227,4.395,32.227,36.621,0
1540168594.916,32.715,33.203,-1.953,41.992,30.762,0
1540168594.920,37.598,36.133,-14.648,46.875,-19.531,0
1540168594.924,41.992,39.062,-9.277,45.898,44.922,0
1540168594.928,35.156,27.344,4.395,44.434,76.172,0
1540168594.932,21.484,21.973,0.977,34.668,86.914,0
1540168594.936,21.973,32.715,7.812,30.273,45.898,0
1540168594.940,27.832,34.180,11.230,37.598,-27.344,0
1540168594.944,29.297,33.203,6.836,40.527,66.406,0
1540168594.948,29.785,33.203,1.465,34.668,54.688,0
1540168594.952,27.832,30.762,3.906,31.738,69.336,0
1540168594.955,33.203,29.785,0.488,32.227,59.570,0
1540168594.959,29.297,32.227,-14.648,34.180,-22.461,0
1540168594.963,20.996,33.203,-10.254,28.320,-31.250,0
1540168594.967,24.902,32.227,7.324,27.344,-10.742,0
1540168594.971,24.902,27.832,11.719,27.344,56.152,0
1540168594.975,28.320,27.832,-3.418,32.715,29.785,0
1540168594.979,36.621,29.297,-6.836,40.039,-37.109,0
1540168594.983,37.109,26.855,3.418,30.273,22.461,0
1540168594.987,29.785,30.273,17.578,24.414,20.996,0
1540168594.991,27.344,37.109,12.207,26.367,2.441,0
1540168594.995,32.715,37.109,-3.418,32.715,25.879,0
1540168594.998,36.133,24.902,14.648,39.551,-1.953,0
1540168595.002,30.273,26.367,33.691,34.180,21.973,0
1540168595.006,25.391,38.574,30.762,24.902,34.668,0
1540168595.010,19.043,32.715,14.648,21.973,20.996,0
1540168595.014,10.254,24.902,2.930,22.461,9.766,0
1540168595.018,8.789,24.902,7.812,22.949,32.227,0
1540168595.022,8.789,24.414,9.277,14.160,21.484,0
1540168595.026,9.766,23.438,12.207,16.602,-12.207,0
1540168595.030,18.066,26.855,20.020,27.344,8.301,0
1540168595.034,15.137,25.391,14.160,26.367,35.645,1
1540168595.038,5.859,22.461,12.695,16.602,50.293,0
1540168595.041,8.789,27.344,7.324,14.648,-11.230,0
1540168595.045,15.625,32.227,-3.906,22.461,7.812,0
1540168595.049,11.719,29.785,2.441,19.531,12.207,0
1540168595.053,9.277,31.738,11.230,8.789,-1.953,0
1540168595.057,8.789,29.785,19.531,4.395,2.441,0
1540168595.061,1.953,20.996,22.461,3.418,-13.184,0
1540168595.065,-3.418,20.996,18.555,2.930,50.293,0
1540168595.069,-1.953,29.297,19.531,6.348,94.727,0
1540168595.073,10.254,30.273,15.137,10.254,33.203,0
1540168595.077,12.207,31.250,5.859,11.230,4.883,0
1540168595.080,13.672,30.762,8.789,15.625,55.176,0
1540168595.084,0.000,28.320,3.906,0.488,89.844,0
1540168595.088,-2.441,36.133,1.953,-6.836,89.355,0
1540168595.092,2.930,41.016,9.766,1.465,32.227,0
1540168595.096,-22.461,33.691,12.207,-18.555,12.695,0
1540168595.100,-36.621,25.391,8.301,-26.855,18.066,0
1540168595.104,-23.926,25.879,6.348,-14.160,42.480,0
1540168595.108,-6.348,40.039,14.648,-0.488,38.574,0
1540168595.112,-29.785,47.852,6.348,-19.043,50.781,0
1540168595.116,-60.547,46.875,-9.766,-52.734,32.715,0
1540168595.120,-42.969,51.758,-2.441,-45.410,-9.277,0
1540168595.123,-41.992,61.523,5.859,-33.691,59.082,0
1540168595.127,-70.312,50.293,-1.465,-58.105,89.355,0
1540168595.131,-88.867,24.414,-2.441,-85.938,49.805,0
1540168595.135,-118.652,38.086,-14.648,-120.117,26.367,0
1540168595.139,-93.750,54.199,-21.973,-104.980,42.480,0
1540168595.143,-56.152,48.828,9.766,-62.988,57.617,0
1540168595.147,-71.777,58.105,14.160,-65.918,5.859,0
1540168595.151,-83.496,50.781,-6.836,-72.266,20.020,0
1540168595.155,-60.059,57.129,-23.438,-51.758,57.617,0
1540168595.159,-24.902,80.078,4.883,-26.855,26.855,0
1540168595.163,-47.363,64.453,30.273,-55.176,10.742,0
1540168595.166,-75.195,56.152,3.906,-78.125,-22.461,0
1540168595.170,-75.684,57.617,-2.441,-76.172,-48.828,0
1540168595.174,-55.664,60.547,13.184,-61.523,6.348,0
1540168595.178,-43.945,66.895,15.137,-44.922,33.203,0
1540168595.182,-50.781,58.594,12.207,-47.363,25.391,0
1540168595.186,-32.715,56.152,12.207,-36.133,17.578,0
1540168595.190,-13.672,57.617,2.441,-23.438,10.254,0
1540168595.194,-18.066,49.805,-7.324,-22.949,78.613,0
1540168595.198,-11.719,46.387,-5.371,-10.254,97.656,0
1540168595.202,2.930,48.340,3.418,-0.977,-14.160,0
1540168595.205,15.137,47.852,10.742,5.859,-31.250,0
1540168595.209,20.508,41.992,5.859,21.484,15.137,0
1540168595.213,22.461,36.621,-3.418,22.461,19.043,0
1540168595.217,24.902,29.785,0.488,23.438,57.617,0
1540168595.221,34.668,26.855,6.348,34.668,19.043,0
1540168595.225,37.598,29.297,6.348,34.668,-2.930,0
1540168595.229,41.016,28.320,2.441,34.668,48.828,0
1540168595.233,48.340,25.391,1.465,42.969,60.547,0
1540168595.237,51.270,28.809,4.395,43.457,30.273,0
1540168595.241,51.270,30.762,3.906,44.434,17.578,0
1540168595.245,54.688,24.902,8.301,48.340,6.348,0
1540168595.248,51.758,21.484,4.883,45.898,-8.789,0
1540168595.252,41.992,21.484,-5.859,38.574,14.648,0
1540168595.256,48.828,17.578,-3.418,46.387,6.836,0
1540168595.260,59.082,13.184,5.859,61.523,14.160,0
1540168595.264,55.664,10.254,10.254,62.500,40.527,0
1540168595.268,52.246,11.719,8.789,55.176,27.344,0
1540168595.272,61.523,12.207,6.836,59.570,17.090,0
1540168595.276,62.012,11.719,12.207,69.336,-29.785,0
1540168595.280,63.477,12.207,13.672,73.730,23.926,0
1540168595.284,67.383,14.160,8.789,73.242,83.984,0
1540168595.288,70.312,12.207,7.324,68.848,3.906,0
1540168595.291,72.754,12.695,7.324,72.266,29.297,0
1540168595.295,60.547,14.160,8.301,77.148,43.945,0
1540168595.299,60.059,13.184,7.812,78.613,12.207,0
1540168595.303,72.754,12.695,0.977,70.312,8.789,0
1540168595.307,73.730,17.578,-4.883,65.430,2.930,0
1540168595.311,74.219,17.578,6.348,70.801,49.316,0
1540168595.315,70.801,16.602,7.812,70.312,52.246,0
1540168595.319,62.988,22.461,4.883,62.500,25.391,0
1540168595.323,60.059,22.949,15.137,59.570,47.852,0
1540168595.327,63.477,21.484,13.184,62.988,50.293,0
1540168595.330,59.082,19.043,12.695,63.965,30.762,0
1540168595.334,51.270,16.113,21.973,60.547,60.547,0
1540168595.338,52.246,12.695,22.949,58.105,73.730,0
1540168595.342,53.223,15.625,20.020,59.570,25.879,0
1540168595.346,50.781,18.555,19.531,62.012,4.883,0
1540168595.350,52.734,15.137,15.137,63.477,-7.812,0
1540168595.354,58.105,20.508,19.043,58.105,-1.465,0
1540168595.358,52.734,22.949,14.648,50.293,47.852,0
1540168595.362,59.082,19.531,0.000,61.523,19.531,0
1540168595.366,72.754,19.531,6.836,59.570,-20.508,0
1540168595.370,78.613,16.602,20.996,41.504,2.441,0
1540168595.373,77.637,15.625,26.367,36.621,37.598,0
1540168595.377,67.871,20.020,16.602,45.410,39.062,0
1540168595.381,65.430,21.484,10.742,53.223,13.672,0
1540168595.385,63.965,22.949,22.461,52.246,-12.695,0
1540168595.389,58.594,23.438,24.414,48.340,-46.875,0
1540168595.393,53.223,23.438,21.484,57.617,-40.527,0
1540168595.397,55.664,23.438,16.113,66.895,-8.301,0
1540168595.401,60.059,29.297,16.113,60.547,0.488,0
1540168595.405,52.246,37.598,20.020,49.805,-23.438,0
1540168595.409,41.992,28.809,12.695,44.434,67.871,0
1540168595.413,44.434,27.344,14.648,48.828,81.543,0
1540168595.416,33.691,26.855,20.020,43.457,30.273,0
1540168595.420,26.367,22.949,22.461,31.250,90.820,0
1540168595.424,32.715,26.367,21.973,34.668,34.180,0
1540168595.428,31.738,27.832,18.066,43.945,-8.789,0
1540168595.432,28.320,25.391,18.555,38.574,27.344,0
1540168595.436,27.344,21.973,17.578,41.504,17.578,0
1540168595.440,30.762,28.320,12.207,45.410,4.883,0
1540168595.444,32.715,27.832,10.254,45.410,37.598,0
1540168595.448,33.691,23.926,18.555,47.852,9.766,0
1540168595.452,36.133,24.902,23.926,45.410,-25.391,0
1540168595.455,33.203,23.438,21.484,45.410,-19.043,0
1540168595.459,31.250,21.973,20.996,44.922,41.504,0
1540168595.463,34.668,20.508,21.484,46.387,63.965,0
1540168595.467,29.785,21.973,18.555,41.016,39.551,0
1540168595.471,27.832,25.391,14.160,35.645,27.832,0
1540168595.475,31.250,27.344,7.812,33.691,-13.672,0
1540168595.479,38.574,29.297,9.277,39.551,3.906,0
1540168595.483,45.410,28.809,6.348,55.176,73.242,0
1540168595.487,52.246,30.762,-7.812,49.805,70.801,0
1540168595.491,54.688,29.785,-1.953,42.480,22.949,0
1540168595.495,52.246,24.902,17.090,46.875,10.742,0
1540168595.498,57.617,24.902,27.344,48.340,-1.465,0
1540168595.502,56.641,27.832,26.855,42.969,32.227,0
1540168595.506,49.316,28.320,20.020,32.715,60.547,0
1540168595.510,49.805,30.273,15.625,38.574,65.918,0
1540168595.514,52.734,30.273,11.719,47.852,20.996,0
1540168595.518,48.340,26.855,10.742,40.039,26.367,0
1540168595.522,47.363,28.809,14.160,35.156,132.324,0
1540168595.526,47.363,31.250,18.555,45.410,64.941,0
1540168595.530,45.410,26.367,15.137,43.945,9.766,0
1540168595.534,43.945,17.578,11.719,37.598,75.195,0
1540168595.538,44.434,26.855,7.812,37.109,42.480,0
1540168595.541,42.480,36.133,1.465,35.156,8.301,0
1540168595.545,41.992,32.715,2.930,35.645,12.207,0
1540168595.549,40.527,36.621,16.113,27.832,20.508,0
1540168595.553,36.133,36.133,27.832,12.695,6.836,0
1540168595.557,36.133,25.879,22.461,6.348,10.742,0
1540168595.561,31.250,25.391,18.066,11.719,29.785,0
1540168595.565,29.785,30.762,20.508,14.160,14.160,0
1540168595.569,33.691,27.832,18.555,17.578,21.484,0
1540168595.573,39.551,28.809,19.531,20.020,19.043,0
1540168595.577,42.480,28.809,19.531,20.996,-11.719,0
1540168595.580,43.457,26.855,15.625,26.367,41.504,0
1540168595.584,46.875,30.762,15.625,27.832,27.832,0
1540168595.588,39.551,29.297,15.625,16.113,-38.086,0
1540168595.592,37.598,27.344,16.113,24.902,56.152,0
1540168595.596,43.457,28.320,6.348,36.133,48.828,0
1540168595.600,43.945,24.414,5.859,26.855,11.719,1
1540168595.604,41.504,20.508,18.555,21.973,83.984,0
1540168595.608,46.875,19.043,5.371,19.043,35.645,0
1540168595.612,45.898,19.531,7.324,20.020,12.695,0
1540168595.616,35.156,21.973,23.438,24.902,52.246,0
1540168595.620,29.785,16.602,23.926,26.367,24.902,0
1540168595.623,25.879,16.602,18.066,20.996,35.645,0
1540168595.627,23.438,22.949,9.766,21.973,32.715,0
1540168595.631,32.227,25.879,10.254,33.203,27.832,0
1540168595.635,39.062,31.738,19.043,37.598,5.859,0
1540168595.639,25.391,28.809,21.973,28.320,-3.906,0
1540168595.643,22.949,23.438,21.484,35.645,48.340,0
1540168595.647,31.738,23.438,24.902,41.504,43.457,0
1540168595.651,26.855,23.926,19.531,35.645,-0.488,0
1540168595.655,29.297,24.902,18.066,42.480,0.977,0
1540168595.659,29.785,22.461,15.137,42.969,6.348,0
1540168595.663,25.879,19.531,6.348,33.203,-41.992,0
1540168595.666,24.414,24.902,6.836,30.273,-1.953,0
1540168595.670,27.832,28.320,8.789,26.367,75.195,0
1540168595.674,33.203,25.879,14.648,24.902,29.297,0
1540168595.678,25.391,27.344,17.090,31.250,-9.766,0
1540168595.682,22.461,31.738,15.137,27.344,11.719,0
1540168595.686,31.250,34.180,17.090,29.297,-2.930,0
1540168595.690,28.320,27.832,18.555,35.645,-26.367,0
1540168595.694,22.461,22.949,17.578,40.039,17.090,0
1540168595.698,26.367,24.414,20.508,48.340,46.387,0
1540168595.702,25.879,28.320,21.484,35.645,75.195,0
1540168595.705,28.320,29.785,15.137,22.461,53.711,0
1540168595.709,30.762,26.855,12.207,37.109,66.406,0
1540168595.713,25.391,20.508,16.602,49.805,104.004,0
1540168595.717,14.160,18.066,22.949,43.457,76.660,0
1540168595.721,21.973,27.832,16.113,40.527,49.316,0
1540168595.725,38.574,34.668,-2.441,49.805,-23.926,0
1540168595.729,33.203,28.809,4.883,46.875,-13.184,0
1540168595.733,25.391,25.879,34.668,37.598,20.996,0
1540168595.737,25.391,20.508,38.574,31.250,-27.344,0
1540168595.741,31.738,23.438,27.344,35.156,16.113,0
1540168595.745,34.180,29.297,20.020,33.203,51.758,0
1540168595.748,26.367,22.461,21.484,29.297,21.973,0
1540168595.752,27.344,24.414,30.762,33.203,32.715,0
1540168595.756,28.809,26.855,24.902,33.691,19.043,0
1540168595.760,27.832,23.438,22.461,37.109,25.391,0
1540168595.764,35.645,24.902,25.391,43.457,62.988,0
1540168595.768,34.180,26.855,22.949,38.574,30.273,0
1540168595.772,37.109,27.344,13.672,28.809,-2.441,0
1540168595.776,35.645,24.902,10.742,32.715,-4.395,0
1540168595.780,35.645,24.902,17.578,42.480,9.766,0
1540168595.784,40.039,26.855,20.996,40.527,60.059,0
1540168595.788,41.504,26.855,17.090,33.203,76.172,0
1540168595.791,41.504,21.973,19.531,39.062,30.762,0
1540168595.795,33.691,22.461,23.438,38.574,-5.371,0
1540168595.799,33.203,27.832,21.973,32.227,-55.176,0
1540168595.803,32.715,25.391,23.926,33.203,-61.035,0
1540168595.807,27.344,18.555,22.461,32.227,10.254,0
1540168595.811,29.785,20.508,17.090,31.250,8.789,0
1540168595.815,33.691,23.438,17.578,24.902,43.945,0
1540168595.819,32.715,21.484,19.043,21.973,88.867,0
1540168595.823,33.203,21.484,20.508,31.250,-14.648,0
1540168595.827,41.992,23.926,19.043,37.598,6.348,0
1540168595.830,43.945,23.926,19.531,33.691,39.062,0
1540168595.834,36.133,21.484,20.020,29.297,47.363,0
1540168595.838,30.273,19.043,18.066,30.273,51.270,0
1540168595.842,26.855,20.020,20.508,34.180,37.598,0
1540168595.846,33.691,26.367,17.090,25.879,53.711,0
1540168595.850,46.387,32.715,15.625,27.344,24.414,0
1540168595.854,31.250,25.391,21.484,27.832,-8.301,0
1540168595.858,15.137,15.137,30.273,26.855,-25.391,0
1540168595.862,27.832,19.531,33.691,31.250,31.738,0
1540168595.866,31.738,23.438,28.809,32.227,80.078,0
1540168595.870,29.297,20.508,27.832,25.391,-16.602,0
1540168595.873,41.992,23.926,26.855,33.203,-30.273,0
1540168595.877,45.410,26.367,22.461,46.387,16.602,0
1540168595.881,41.504,22.949,22.461,41.016,20.996,0
1540168595.885,39.062,21.973,20.508,42.969,19.531,0
1540168595.889,33.691,23.926,14.160,41.016,7.324,0
1540168595.893,34.180,23.926,23.438,41.504,18.555,0
1540168595.897,36.621,27.832,32.227,47.852,-26.855,0
1540168595.901,29.785,29.297,15.625,40.527,-34.180,0
1540168595.905,43.945,29.785,13.672,32.715,23.438,0
1540168595.909,50.781,35.645,20.020,30.273,41.504,0
1540168595.913,36.621,29.297,20.020,27.344,48.828,0
1540168595.916,31.250,25.879,22.949,27.344,39.062,0
1540168595.920,40.527,24.902,22.949,34.180,-11.230,0
1540168595.924,45.898,24.902,23.438,40.039,-51.270,0
1540168595.928,45.898,32.715,15.625,40.527,-23.926,0
1540168595.932,40.527,33.203,9.766,42.969,57.617,0
1540168595.936,40.039,31.738,5.371,44.434,21.484,0
1540168595.940,38.574,32.715,11.719,24.414,3.906,0
1540168595.944,28.809,28.809,20.020,18.066,96.680,0
1540168595.948,30.273,24.414,19.043,28.320,63.477,0
1540168595.952,27.344,26.855,14.160,24.414,-14.160,0
1540168595.955,20.020,29.785,15.137,16.113,-1.953,0
1540168595.959,25.391,30.273,10.742,17.578,28.809,0
1540168595.963,29.785,28.809,0.000,21.484,-10.254,0
1540168595.967,30.762,30.762,6.348,18.066,-10.742,0
1540168595.971,33.691,30.762,16.602,19.043,49.805,0
1540168595.975,28.809,22.461,16.602,30.762,47.852,0
1540168595.979,26.855,25.391,11.230,36.621,8.301,0
1540168595.983,28.320,31.250,7.324,26.367,32.715,0
1540168595.987,37.109,32.715,0.977,21.973,64.453,0
1540168595.991,38.574,40.039,8.789,19.531,90.332,0
1540168595.995,26.367,37.109,16.602,7.324,93.750,0
1540168595.998,27.344,29.297,18.066,8.301,13.672,0
1540168596.002,22.461,33.691,25.879,13.672,28.320,0
1540168596.006,15.625,32.227,25.391,18.555,72.754,0
1540168596.010,20.996,28.809,20.996,25.879,101.562,0
1540168596.014,26.367,25.391,16.602,25.879,107.910,0
1540168596.018,28.809,30.273,5.371,25.879,-1.953,0
1540168596.022,28.809,39.062,0.488,22.461,-60.547,0
1540168596.026,31.250,33.203,4.883,25.879,23.438,0
1540168596.030,41.992,25.879,11.230,32.715,86.914,0
1540168596.034,34.180,28.809,22.461,23.438,31.738,0
1540168596.038,18.066,29.785,23.926,14.648,35.156,0
1540168596.041,18.066,25.879,20.508,19.043,47.852,0
1540168596.045,28.809,28.320,16.113,23.926,4.883,0
1540168596.049,33.203,32.227,18.066,26.367,-2.930,0
1540168596.053,31.250,30.273,20.020,26.367,27.344,0
1540168596.057,31.738,28.320,22.461,30.273,23.438,0
1540168596.061,32.227,26.855,11.230,33.691,31.738,0
1540168596.065,32.227,26.855,-1.953,34.180,32.227,0
1540168596.069,22.461,25.879,10.254,28.320,11.230,0
1540168596.073,24.902,23.926,17.090,20.996,40.527,0
1540168596.077,29.785,26.855,15.625,20.508,49.805,0
1540168596.080,25.879,26.367,15.625,18.555,23.438,0
1540168596.084,26.367,26.367,28.320,24.902,92.773,0
1540168596.088,27.344,30.762,29.297,23.438,64.941,0
1540168596.092,31.250,24.902,14.160,18.555,6.836,0
1540168596.096,46.387,21.973,15.137,24.414,26.855,0
1540168596.100,50.293,27.344,24.414,19.043,48.340,0
1540168596.104,42.480,34.668,29.785,8.301,25.391,0
1540168596.108,33.691,31.738,32.227,10.254,-35.645,0
1540168596.112,30.762,27.832,30.762,25.879,-66.406,0
1540168596.116,31.250,30.273,24.414,32.715,-32.227,0
1540168596.120,21.973,34.180,13.672,15.137,17.578,0
1540168596.123,14.648,33.203,13.184,15.625,-8.789,0
1540168596.127,18.555,27.832,19.043,33.203,0.977,0
1540168596.131,23.926,29.785,7.324,38.086,22.461,0
1540168596.135,29.297,34.180,11.719,27.344,17.090,0
1540168596.139,24.414,31.738,30.273,20.020,30.762,0
1540168596.143,11.230,26.855,25.879,23.926,16.113,0
1540168596.147,14.160,24.902,26.855,30.762,-24.902,0
1540168596.151,17.090,24.902,31.738,26.367,-21.484,0
1540168596.155,14.160,25.391,26.367,27.344,44.922,0
1540168596.159,24.414,25.391,26.367,42.480,72.754,0
1540168596.163,30.762,26.855,22.461,37.109,62.988,0
1540168596.166,20.508,30.762,20.508,33.691,66.895,0
1540168596.170,12.207,32.227,23.438,30.762,64.941,0
1540168596.174,16.602,34.180,20.508,27.344,17.578,0
1540168596.178,31.738,32.715,20.508,38.574,12.207,0
1540168596.182,28.320,29.297,20.508,39.551,53.223,0
1540168596.186,14.160,28.320,20.996,26.855,86.426,0
1540168596.190,11.230,26.855,16.113,28.809,73.730,0
1540168596.194,14.160,26.367,20.996,33.691,-14.160,0
1540168596.198,19.531,27.344,23.926,28.320,9.766,0
1540168596.202,22.461,25.879,13.672,29.785,118.164,0
1540168596.205,24.902,28.809,30.762,30.273,125.977,0
1540168596.209,27.832,29.297,37.598,35.645,51.758,0
1540168596.213,28.320,33.691,32.227,36.621,-5.859,0
1540168596.217,36.133,40.527,23.438,31.250,27.832,0
1540168596.221,46.387,40.039,-3.418,36.621,26.855,0
1540168596.225,48.340,31.738,15.625,37.109,-6.348,0
1540168596.229,34.668,18.066,52.246,25.391,41.016,0
1540168596.233,20.996,20.996,41.992,12.695,58.594,0
1540168596.237,21.973,34.180,29.785,-0.977,38.086,0
1540168596.241,28.320,36.621,33.203,-0.488,29.785,0
1540168596.245,32.715,35.156,25.879,16.113,-23.438,0
1540168596.248,33.203,33.203,18.555,23.926,18.066,0
1540168596.252,35.156,31.738,25.391,23.926,82.031,0
1540168596.256,38.086,30.273,29.297,17.578,34.668,0
1540168596.260,39.551,28.320,16.113,16.113,-22.461,0
1540168596.264,46.875,30.762,11.230,24.414,25.391,0
1540168596.268,39.062,26.855,26.367,27.832,47.363,0
1540168596.272,27.832,22.461,27.344,19.531,20.508,0
1540168596.276,31.250,19.043,31.738,20.020,26.855,0
1540168596.280,36.621,19.531,30.273,24.414,44.434,0
1540168596.284,35.645,18.066,23.438,28.320,35.156,0
1540168596.288,42.969,26.367,10.742,34.180,37.109,0
1540168596.291,47.852,42.969,13.672,35.156,80.566,0
1540168596.295,37.109,36.621,44.434,23.926,48.828,0
1540168596.299,27.832,31.250,46.875,16.602,-20.996,0
1540168596.303,27.832,35.645,38.574,15.625,30.273,0
1540168596.307,33.203,37.598,36.621,20.508,27.344,0
1540168596.311,32.227,35.156,37.598,34.668,-21.973,0
1540168596.315,30.762,34.180,37.109,41.504,21.973,0
1540168596.319,30.273,37.109,29.785,30.762,40.527,0
1540168596.323,32.227,42.480,24.902,19.043,26.855,0
1540168596.327,41.504,47.852,21.484,22.949,14.160,0
1540168596.330,46.875,47.852,22.949,26.367,44.922,1
1540168596.334,41.504,47.852,27.832,25.391,23.926,0
1540168596.338,45.410,47.852,23.926,32.227,-13.672,0
1540168596.342,41.504,42.480,22.949,35.156,3.418,0
1540168596.346,40.039,44.922,21.484,25.879,-22.949,0
1540168596.350,46.875,48.828,17.090,18.555,-24.902,0
1540168596.354,51.758,46.387,21.484,20.508,9.277,0
1540168596.358,61.035,47.852,20.508,35.156,22.949,0
1540168596.362,58.105,43.945,21.973,43.945,17.578,0
1540168596.366,49.805,40.039,28.320,45.410,48.828,0
1540168596.370,43.945,41.504,31.250,41.016,82.520,0
1540168596.373,47.852,40.527,29.297,39.062,23.926,0
1540168596.377,48.828,39.062,22.461,44.434,-32.715,0
1540168596.381,40.039,40.527,17.578,45.898,-12.207,0
1540168596.385,35.645,43.945,18.555,42.480,72.266,0
1540168596.389,32.715,44.434,14.160,39.551,56.152,0
1540168596.393,39.551,40.527,9.277,49.805,30.273,0
1540168596.397,43.945,40.527,15.137,53.223,69.824,0
1540168596.401,39.062,38.574,26.367,48.340,67.383,0
1540168596.405,40.039,27.832,35.156,52.246,44.434,0
1540168596.409,33.691,30.273,36.621,48.340,13.672,0
1540168596.413,24.414,32.715,37.109,30.762,31.738,0
1540168596.416,36.133,34.180,40.039,39.551,29.785,0
1540168596.420,44.434,41.504,42.969,57.129,-0.977,0
1540168596.424,28.809,31.738,16.602,48.828,37.109,0
1540168596.428,22.949,24.414,19.531,44.434,71.289,0
1540168596.432,26.367,25.879,41.016,44.922,40.039,0
1540168596.436,28.809,26.855,31.738,36.621,20.508,0
1540168596.440,38.086,31.738,19.043,35.645,17.090,0
1540168596.444,45.410,31.738,17.578,49.316,31.738,0
1540168596.448,40.039,26.367,29.785,50.781,47.363,0
1540168596.452,34.180,29.297,28.809,39.062,54.688,0
1540168596.455,38.574,39.062,20.508,32.715,112.793,0
1540168596.459,48.340,41.504,27.832,41.016,87.891,0
1540168596.463,56.641,36.133,26.855,51.270,63.965,0
1540168596.467,54.199,37.109,23.926,53.223,58.105,0
1540168596.471,44.922,40.039,18.066,44.922,2.930,0
1540168596.475,45.410,43.457,25.391,47.363,41.504,0
1540168596.479,53.223,44.434,23.438,46.387,51.270,0
1540168596.483,37.598,40.527,15.625,28.320,74.219,0
1540168596.487,26.367,29.297,37.598,21.973,69.824,0
1540168596.491,35.645,24.902,45.898,33.203,18.555,0
1540168596.495,40.039,37.109,36.133,42.969,52.246,0
1540168596.498,45.898,44.922,21.484,46.875,83.984,0
1540168596.502,46.387,42.480,26.855,39.062,52.734,0
1540168596.506,50.293,38.086,44.434,41.992,43.457,0
1540168596.510,52.734,39.062,43.945,53.223,83.008,0
1540168596.514,45.410,40.527,27.832,53.711,69.336,0
1540168596.518,45.410,45.898,24.902,43.457,40.527,0
1540168596.522,38.574,38.574,34.668,28.809,28.320,0
1540168596.526,18.555,31.738,29.297,20.996,63.965,0
1540168596.530,19.043,29.785,35.156,34.180,20.020,0
1540168596.534,20.508,30.762,41.016,26.367,-32.227,0
1540168596.538,11.719,35.645,37.109,12.695,14.160,0
1540168596.541,8.301,31.250,35.645,17.578,43.457,0
1540168596.545,6.348,32.227,25.391,6.836,54.688,0
1540168596.549,12.695,31.738,21.973,2.930,47.363,0
1540168596.553,16.113,28.320,21.484,-14.648,30.273,0
1540168596.557,3.418,28.809,13.672,-23.438,-22.461,0
1540168596.561,-1.953,29.297,18.555,0.977,-37.109,0
1540168596.565,4.395,26.855,22.949,9.277,1.953,0
1540168596.569,-4.395,25.879,9.277,-4.883,10.254,0
1540168596.573,0.977,32.227,19.531,-0.977,-1.465,0
1540168596.577,4.395,32.715,34.180,11.230,13.184,0
1540168596.580,-7.812,27.344,26.367,-0.977,104.492,0
1540168596.584,-10.742,34.180,17.578,-23.438,40.039,0
1540168596.588,-22.461,41.016,8.789,-48.828,-18.066,0
1540168596.592,-49.805,40.527,4.883,-61.035,8.789,0
1540168596.596,-52.246,39.551,17.090,-50.781,28.809,0
1540168596.600,-49.316,47.852,22.461,-47.363,21.484,0
1540168596.604,-71.777,55.664,9.766,-65.430,11.230,0
1540168596.608,-86.914,53.711,5.859,-78.125,20.508,0
1540168596.612,-83.008,49.805,3.906,-79.102,89.355,0
1540168596.616,-64.453,56.152,6.836,-76.660,118.164,0
1540168596.620,-87.402,54.199,1.953,-94.238,106.934,0
1540168596.623,-88.379,60.059,1.953,-93.262,95.215,0
1540168596.627,-62.012,66.406,20.508,-64.941,59.082,0
1540168596.631,-56.641,71.777,22.461,-61.523,38.086,0
1540168596.635,-58.105,82.031,15.137,-69.824,14.160,0
1540168596.639,-67.383,78.613,18.066,-65.430,7.324,0
1540168596.643,-70.801,77.148,20.996,-67.383,-38.086,0
1540168596.647,-67.383,79.102,12.695,-78.125,-44.434,0
1540168596.651,-73.242,74.707,7.324,-83.008,6.836,0
1540168596.655,-66.406,76.172,9.766,-78.125,37.598,0
1540168596.659,-41.016,77.637,8.301,-54.688,60.059,0
1540168596.663,-34.180,68.848,4.395,-43.457,51.758,0
1540168596.666,-38.574,61.523,24.414,-44.922,49.805,0
1540168596.670,-33.203,57.129,43.945,-34.668,26.855,0
1540168596.674,-30.273,55.664,30.762,-30.762,53.711,0
1540168596.678,-28.809,51.270,26.367,-35.645,70.312,0
1540168596.682,-25.391,46.387,35.645,-30.762,62.988,0
1540168596.686,-14.648,41.992,29.785,-9.766,16.113,0
1540168596.690,-6.348,39.551,30.762,6.348,-13.184,0
1540168596.694,-1.953,38.574,31.250,10.254,59.570,0
1540168596.698,3.418,34.180,22.949,9.766,45.898,0
1540168596.702,4.883,32.715,24.902,7.812,14.648,0
1540168596.705,16.113,33.203,30.762,22.461,24.902,0
1540168596.709,24.902,31.250,30.762,34.668,0.488,0
1540168596.713,17.578,22.949,28.320,31.738,-20.996,0
1540168596.717,20.508,18.555,33.203,40.527,32.227,0
1540168596.721,21.484,17.578,33.203,44.434,5.859,0
1540168596.725,12.207,20.020,21.973,39.551,9.766,0
1540168596.729,25.391,18.066,22.949,55.664,58.105,0
1540168596.733,41.016,17.090,41.504,68.848,38.574,0
1540168596.737,34.180,26.855,49.316,41.016,-1.953,0
1540168596.741,41.016,22.949,33.691,39.062,-25.879,0
1540168596.745,42.480,14.160,32.715,64.941,0.000,0
1540168596.748,28.320,18.555,43.457,75.684,7.324,0
1540168596.752,67.383,19.531,38.574,75.684,-74.219,0
1540168596.756,91.797,20.996,31.738,72.266,-17.578,0
1540168596.760,88.379,21.973,33.203,85.938,56.641,0
1540168596.764,92.773,25.391,34.668,83.008,49.805,0
1540168596.768,83.496,27.344,33.691,81.055,34.668,0
1540168596.772,67.871,22.949,32.227,70.312,7.324,0
1540168596.776,71.777,25.391,33.691,71.777,31.738,0
1540168596.780,73.242,22.461,32.715,94.727,55.664,0
1540168596.784,54.199,15.137,37.598,96.680,64.941,0
1540168596.788,61.523,17.090,39.551,81.055,24.902,0
1540168596.791,72.266,19.531,40.039,78.125,93.262,0
1540168596.795,84.473,22.461,34.180,81.543,89.355,0
1540168596.799,81.055,26.367,24.902,66.406,8.301,0
1540168596.803,72.266,25.391,28.320,59.570,-4.883,0
1540168596.807,98.145,21.484,32.715,69.336,-22.949,0
1540168596.811,104.004,22.949,28.320,75.684,14.160,0
1540168596.815,98.633,21.973,30.273,73.730,15.625,0
1540168596.819,99.609,21.973,30.762,75.684,35.645,0
1540168596.823,101.562,27.344,22.949,82.520,58.594,0
1540168596.827,94.727,23.926,26.367,90.332,52.246,0
1540168596.830,85.938,21.484,36.621,96.191,31.738,0
1540168596.834,75.684,25.391,31.738,84.473,22.461,0
1540168596.838,62.012,22.461,31.738,67.871,38.574,0
1540168596.842,62.500,21.973,38.086,71.289,67.383,0
1540168596.846,68.359,23.438,28.320,75.195,100.098,0
1540168596.850,56.641,24.902,29.297,73.242,22.461,0
1540168596.854,38.086,30.273,34.668,54.199,0.488,0
1540168596.858,29.297,24.414,38.574,33.691,62.012,0
1540168596.862,38.574,20.508,39.551,45.410,63.477,0
1540168596.866,56.641,25.391,29.785,53.711,37.109,0
1540168596.870,56.641,25.391,22.461,45.898,-2.441,0
1540168596.873,45.898,25.391,20.020,44.922,-35.645,0
1540168596.877,54.199,27.344,18.066,51.270,-38.086,0
1540168596.881,48.828,25.391,28.809,41.504,-3.418,0
1540168596.885,19.043,20.508,33.203,41.992,35.645,0
1540168596.889,41.504,20.996,29.297,43.457,5.371,0
1540168596.893,81.543,24.414,28.809,57.129,14.648,0
1540168596.897,67.383,22.461,23.926,59.082,34.180,0
1540168596.901,35.156,22.949,30.762,32.227,17.090,0
1540168596.905,34.668,27.344,41.016,29.785,59.082,0
1540168596.909,52.246,26.855,36.621,38.086,25.879,0
1540168596.913,41.016,20.996,34.668,37.598,-8.301,0
1540168596.916,23.926,21.484,42.969,35.645,61.035,0
1540168596.920,25.879,31.250,33.691,36.621,92.773,0
1540168596.924,26.367,23.926,20.996,36.621,8.789,0
1540168596.928,46.387,18.555,28.809,40.527,11.230,0
1540168596.932,50.781,21.973,31.738,32.715,27.832,0
1540168596.936,37.598,26.367,31.250,31.250,12.207,0
1540168596.940,32.715,25.391,27.832,39.062,2.441,1
1540168596.944,30.273,20.508,34.180,28.320,0.000,0
1540168596.948,45.410,25.391,28.320,32.227,-22.461,0
1540168596.952,24.414,24.902,26.855,37.109,-11.719,0
1540168596.955,13.184,28.320,28.320,25.391,66.406,0
1540168596.959,19.043,27.344,25.879,29.785,63.477,0
1540168596.963,28.809,22.949,28.320,38.574,-7.812,0
1540168596.967,43.945,28.809,25.391,22.949,-55.664,0
1540168596.971,7.812,19.531,43.945,-5.371,-52.246,0
1540168596.975,11.230,20.996,41.016,20.996,-19.531,0
1540168596.979,32.227,31.250,27.344,24.414,-10.742,0
1540168596.983,12.695,22.949,32.227,15.137,4.883,0
1540168596.987,20.996,26.855,32.227,39.062,113.281,0
1540168596.991,41.504,25.879,32.715,33.691,120.117,0
1540168596.995,44.434,20.508,33.691,39.062,24.902,0
1540168596.998,26.367,21.484,33.691,20.996,64.453,0
1540168597.002,14.648,25.879,14.648,21.973,60.547,0
1540168597.006,30.273,24.414,17.578,26.855,-35.156,0
1540168597.010,23.438,21.484,37.109,-1.953,-37.598,0
1540168597.014,21.973,22.461,25.391,0.000,36.133,0
1540168597.018,28.320,22.949,20.996,30.762,63.965,0
1540168597.022,26.367,29.297,36.133,24.902,36.133,0
1540168597.026,22.461,23.926,44.922,-3.418,39.062,0
1540168597.030,28.320,21.973,23.438,20.508,36.621,0
1540168597.034,39.062,25.879,15.625,44.434,60.547,0
1540168597.038,26.855,29.785,27.344,29.785,50.781,0
1540168597.041,18.066,26.855,31.738,19.531,35.645,0
1540168597.045,13.184,19.043,33.203,20.508,47.363,0
1540168597.049,22.461,27.832,32.227,26.367,-23.438,0
1540168597.053,26.855,27.344,36.133,33.203,-22.949,0
1540168597.057,14.648,20.020,37.109,19.043,17.090,0
1540168597.061,19.531,22.461,37.109,23.926,24.902,0
1540168597.065,25.879,21.973,34.668,33.691,37.109,0
1540168597.069,25.879,20.996,31.738,27.832,33.203,0
1540168597.073,21.484,23.926,39.551,23.926,13.184,0
1540168597.077,22.461,19.043,42.969,26.367,-27.344,0
1540168597.080,1.465,30.762,28.320,12.695,-13.184,0
1540168597.084,0.488,37.109,35.156,9.766,9.277,0
1540168597.088,26.855,20.508,52.246,17.090,43.457,0
1540168597.092,24.414,21.973,37.109,26.855,35.645,0
1540168597.096,22.461,26.367,32.227,36.133,23.438,0
1540168597.100,10.742,27.832,36.621,29.785,64.941,0
1540168597.104,2.930,20.996,40.039,22.949,71.289,0
1540168597.108,13.184,17.090,42.480,14.648,58.594,0
1540168597.112,14.648,18.066,47.363,26.367,29.785,0
1540168597.116,5.371,21.973,41.016,29.785,22.461,0
1540168597.120,15.137,26.855,43.945,20.020,41.504,0
1540168597.123,14.648,29.297,38.574,-0.977,61.035,0
1540168597.127,20.020,31.738,21.484,26.855,33.691,0
1540168597.131,18.555,22.949,28.809,55.664,-23.438,0
1540168597.135,13.184,20.020,38.574,23.926,-20.020,0
1540168597.139,21.484,28.320,38.086,14.648,6.836,0
1540168597.143,25.391,34.668,24.414,42.480,4.883,0
1540168597.147,34.180,34.180,25.391,44.922,66.406,0
1540168597.151,26.367,33.203,30.762,34.668,90.332,0
1540168597.155,13.672,33.203,32.227,24.902,12.695,0
1540168597.159,20.996,33.691,32.715,27.344,-54.688,0
1540168597.163,29.297,32.715,27.832,28.320,-18.555,0
1540168597.166,20.508,30.273,31.738,25.879,25.391,0
1540168597.170,21.484,27.832,38.574,20.996,-3.418,0
1540168597.174,33.203,28.809,29.785,25.879,24.902,0
1540168597.178,35.645,32.227,25.879,31.738,27.832,0
1540168597.182,23.438,31.250,39.551,26.855,62.500,0
1540168597.186,13.672,31.250,34.668,23.926,93.262,0
1540168597.190,21.484,29.785,25.391,19.043,47.852,0
1540168597.194,20.508,27.832,31.738,19.531,88.867,0
1540168597.198,36.621,27.832,35.156,36.621,67.383,0
1540168597.202,31.250,26.367,36.621,26.855,22.461,0
1540168597.205,23.438,25.879,25.391,24.902,20.020,0
1540168597.209,33.691,22.949,27.344,24.902,61.035,0
1540168597.213,24.414,22.461,38.574,13.184,73.730,0
1540168597.217,11.230,25.879,41.992,29.297,34.180,0
1540168597.221,1.953,19.531,37.598,23.438,12.207,0
1540168597.225,-0.977,14.160,46.875,0.977,-4.883,0
1540168597.229,8.301,16.602,57.617,-8.301,35.645,0
1540168597.233,15.625,26.367,25.391,7.812,70.801,0
1540168597.237,20.996,30.762,20.996,20.996,34.668,0
1540168597.241,13.184,25.879,37.109,15.625,32.227,0
1540168597.245,11.230,24.902,24.414,22.949,59.570,0
1540168597.248,16.113,26.367,22.461,35.645,58.594,0
1540168597.252,-13.184,20.996,33.691,16.602,59.570,0
1540168597.256,-19.043,24.414,29.297,-2.441,33.691,0
1540168597.260,4.883,29.785,30.273,-5.371,19.043,0
1540168597.264,17.090,30.273,32.227,0.000,41.016,0
1540168597.268,20.020,29.785,25.879,25.391,27.832,0
1540168597.272,5.371,23.926,28.320,39.551,2.441,0
1540168597.276,19.531,33.691,23.926,22.949,0.488,0
1540168597.280,35.156,29.785,28.809,3.906,72.754,0
1540168597.284,-10.254,20.508,34.668,19.043,54.688,0
1540168597.288,-6.348,21.484,36.621,32.227,1.953,0
1540168597.291,57.617,30.762,33.691,37.598,29.297,0
1540168597.295,71.777,34.180,31.250,45.898,25.391,0
1540168597.299,54.199,28.809,36.621,49.805,-4.883,0
1540168597.303,51.270,28.809,39.062,50.781,-2.930,0
1540168597.307,51.270,26.855,39.551,52.734,17.578,0
1540168597.311,38.574,28.320,32.227,40.527,62.988,0
1540168597.315,28.809,28.809,30.273,14.160,48.828,0
1540168597.319,21.484,28.809,35.156,17.090,-4.395,0
1540168597.323,20.996,30.273,30.762,16.602,-6.348,0
1540168597.327,7.812,29.785,36.133,21.973,43.457,0
1540168597.330,25.879,28.809,40.039,28.320,83.984,0
1540168597.334,31.738,38.086,23.438,15.625,24.902,0
1540168597.338,25.879,40.039,22.949,14.160,10.742,0
1540168597.342,23.438,31.738,34.180,20.020,0.000,0
1540168597.346,-2.441,31.250,37.598,-0.488,41.504,0
1540168597.350,6.348,31.250,38.086,8.789,57.617,0
1540168597.354,33.203,28.320,31.250,21.973,13.672,0
1540168597.358,1.465,26.855,39.551,-0.488,42.969,0
1540168597.362,8.789,26.855,41.016,7.324,60.059,0
1540168597.366,36.133,25.879,27.832,24.902,36.133,0
1540168597.370,25.879,25.879,40.527,4.395,1.953,0
1540168597.373,33.203,29.297,32.715,-1.953,31.738,0
1540168597.377,29.785,28.809,14.648,21.973,40.039,0
1540168597.381,10.254,26.855,25.879,34.668,7.812,0
1540168597.385,14.648,29.785,31.250,43.457,37.598,0
1540168597.389,32.227,27.832,19.531,31.738,34.668,0
1540168597.393,45.410,29.297,25.391,34.668,69.336,0
1540168597.397,55.664,36.133,46.387,45.898,71.777,0
1540168597.401,40.527,35.645,39.062,37.109,5.371,0
1540168597.405,35.645,29.785,32.715,43.945,-1.465,0
1540168597.409,54.199,33.203,34.668,50.293,14.160,0
1540168597.413,39.062,35.156,40.039,56.641,12.695,0
1540168597.416,20.020,28.320,48.340,32.227,39.551,0
1540168597.420,21.973,25.391,48.340,16.113,67.383,0
1540168597.424,26.855,30.273,33.691,41.016,63.477,0
1540168597.428,35.645,41.016,25.879,45.410,45.898,0
1540168597.432,36.621,39.551,31.738,32.715,45.410,0
1540168597.436,42.480,29.297,36.133,30.762,83.984,0
1540168597.440,49.805,35.156,34.180,31.738,59.570,0
1540168597.444,29.785,36.621,32.715,24.902,23.926,0
1540168597.448,17.578,33.203,31.250,20.508,64.453,0
1540168597.452,24.414,35.645,27.832,16.602,59.082,0
1540168597.455,37.598,37.598,26.367,22.461,21.484,0
1540168597.459,44.922,37.109,24.414,31.250,28.320,0
1540168597.463,39.551,30.762,33.691,37.109,52.246,0
1540168597.467,31.250,29.785,33.691,52.734,54.688,0
1540168597.471,22.461,34.180,21.484,36.621,32.227,0
1540168597.475,39.062,36.621,25.879,13.184,54.199,0
1540168597.479,34.180,40.527,27.344,31.250,42.480,0
1540168597.483,33.691,38.574,27.832,31.250,17.090,0
1540168597.487,34.668,40.039,26.855,14.160,63.477,0
1540168597.491,15.625,37.598,28.809,11.230,60.547,0
1540168597.495,42.480,36.621,31.250,38.574,85.449,0
1540168597.498,44.434,39.551,25.879,47.852,84.473,0
1540168597.502,36.621,41.504,23.438,28.320,57.129,0
1540168597.506,48.340,48.340,19.531,-7.812,51.758,0
1540168597.510,62.500,39.551,15.137,-0.977,20.996,0
1540168597.514,70.801,37.598,21.484,30.273,39.062,0
1540168597.518,72.266,37.109,27.344,40.039,34.180,0
1540168597.522,37.598,29.785,33.203,20.996,5.371,0
1540168597.526,8.789,25.879,31.738,9.277,13.184,0
1540168597.530,24.902,26.855,25.879,25.879,70.801,0
1540168597.534,11.719,31.250,25.391,38.086,85.449,1
1540168597.538,-9.766,22.461,37.109,5.371,48.828,0
1540168597.541,21.973,26.367,28.320,-7.324,19.043,0
1540168597.545,42.969,31.250,17.090,28.809,33.203,0
1540168597.549,27.832,27.344,24.414,40.039,48.340,0
1540168597.553,23.438,25.879,36.133,25.879,85.449,0
1540168597.557,14.160,27.832,31.250,7.812,73.242,0
1540168597.561,21.973,31.738,25.391,38.574,49.805,0
1540168597.565,27.832,27.832,32.227,47.363,92.773,0
1540168597.569,0.977,25.879,34.668,21.973,52.734,0
1540168597.573,12.695,25.879,40.527,26.855,13.672,0
1540168597.577,27.344,28.320,38.086,24.902,79.102,0
1540168597.580,17.090,27.344,34.180,35.156,104.004,0
1540168597.584,25.391,22.949,41.504,46.875,62.500,0
1540168597.588,28.320,24.414,35.156,0.977,40.039,0
1540168597.592,22.461,37.598,23.926,20.020,33.691,0
1540168597.596,36.133,35.645,31.738,57.617,61.523,0
1540168597.600,31.250,22.949,42.969,13.184,113.281,0
1540168597.604,19.043,21.973,42.480,20.020,88.379,0
1540168597.608,33.203,20.020,35.645,33.203,76.660,0
1540168597.612,32.227,20.996,31.250,21.973,110.352,0
1540168597.616,20.020,24.902,30.762,30.762,122.559,0
1540168597.620,27.344,21.973,37.598,38.574,104.492,0
1540168597.623,30.762,17.578,40.527,38.086,53.711,0
1540168597.627,20.996,27.832,40.527,4.395,78.125,0
1540168597.631,16.113,29.785,41.016,0.000,109.375,0
1540168597.635,20.508,23.926,41.504,30.762,92.773,0
1540168597.639,30.762,27.832,37.598,32.715,66.895,0
1540168597.643,29.297,29.785,34.180,38.086,103.027,0
1540168597.647,2.930,40.527,35.156,34.668,140.625,0
1540168597.651,2.930,42.969,30.273,37.598,124.023,0
1540168597.655,44.434,20.996,39.551,44.434,104.980,0
1540168597.659,38.574,22.461,43.457,72.754,95.703,0
1540168597.663,22.949,28.809,38.086,64.453,110.352,0
1540168597.666,55.664,38.086,34.668,21.484,126.465,0
1540168597.670,26.367,43.457,35.156,27.832,107.422,0
1540168597.674,21.484,27.344,32.715,20.996,96.191,0
1540168597.678,40.527,40.527,24.902,31.250,130.859,0
1540168597.682,5.371,39.551,31.738,46.387,155.762,0
1540168597.686,39.062,28.320,36.621,35.156,123.047,0
1540168597.690,71.289,35.645,34.668,33.691,84.473,0
1540168597.694,46.387,39.062,33.203,20.508,116.211,0
1540168597.698,23.926,32.227,35.156,17.090,154.297,0
1540168597.702,31.250,20.996,40.039,39.062,126.953,0
1540168597.705,37.109,23.926,42.969,51.270,84.961,0
1540168597.709,31.738,24.902,51.270,40.039,65.430,0
1540168597.713,35.645,30.273,35.645,35.156,99.609,0
1540168597.717,43.457,30.762,27.832,42.480,135.254,0
1540168597.721,43.457,29.297,32.715,17.090,80.078,0
1540168597.725,31.250,31.738,31.250,20.996,57.617,0
1540168597.729,43.457,29.785,36.621,49.316,139.648,0
1540168597.733,50.293,29.297,38.086,42.480,138.184,0
1540168597.737,48.340,31.250,39.551,24.902,98.633,0
1540168597.741,28.320,30.273,41.016,30.273,60.547,0
1540168597.745,12.207,27.832,45.898,41.992,89.355,0
1540168597.748,25.391,30.273,43.457,20.020,117.676,0
1540168597.752,30.273,27.832,37.109,17.578,59.570,0
1540168597.756,33.691,24.414,45.410,47.852,35.645,0
1540168597.760,23.438,23.926,48.828,41.504,61.035,0
1540168597.764,42.969,26.855,44.434,27.344,97.168,0
1540168597.768,43.945,25.879,42.480,21.973,75.684,0
1540168597.772,14.160,26.855,46.875,30.762,15.625,0
1540168597.776,13.184,25.879,40.039,43.457,15.137,0
1540168597.780,23.438,20.020,41.016,32.227,46.875,0
1540168597.784,10.742,22.461,47.852,25.391,30.762,0
1540168597.788,18.555,24.414,49.316,46.875,11.230,0
1540168597.791,24.414,22.461,53.711,39.551,4.395,0
1540168597.795,36.133,30.273,39.062,32.715,30.273,0
1540168597.799,39.062,28.320,35.156,53.223,34.668,0
1540168597.803,17.090,24.902,40.039,49.805,9.277,0
1540168597.807,0.000,24.902,43.457,24.414,-11.719,0
1540168597.811,4.883,22.461,46.387,33.203,-13.672,0
1540168597.815,29.785,26.855,45.410,51.758,3.906,0
1540168597.819,16.113,23.926,46.387,47.852,5.371,0
1540168597.823,-5.371,24.414,45.898,38.086,-26.855,0
1540168597.827,3.906,33.203,48.340,21.973,-33.203,0
1540168597.830,31.250,25.391,47.852,26.855,7.812,0
1540168597.834,21.484,17.578,38.086,40.527,6.836,0
1540168597.838,36.621,20.996,34.180,31.250,-25.391,0
1540168597.842,32.227,23.438,47.852,26.855,-42.969,0
1540168597.846,23.926,17.090,53.223,32.715,-30.762,0
1540168597.850,40.527,19.531,43.457,29.297,-6.836,0
1540168597.854,2.930,24.414,43.457,25.879,-35.156,0
1540168597.858,0.000,23.926,47.852,26.855,-86.914,0
1540168597.862,31.250,27.832,50.781,21.973,-49.805,0
1540168597.866,19.043,28.320,44.922,17.578,19.531,0
1540168597.870,18.555,23.438,45.410,22.461,-27.344,0
1540168597.873,22.949,28.809,47.852,48.340,-77.148,0
1540168597.877,28.320,27.832,52.246,53.711,-52.734,0
1540168597.881,29.785,26.855,50.781,31.250,-25.879,0
1540168597.885,19.531,29.785,40.039,25.879,-13.672,0
1540168597.889,39.062,27.832,42.480,38.574,-52.246,0
1540168597.893,41.504,33.203,34.668,41.016,-67.383,0
1540168597.897,30.273,31.250,23.926,14.648,-31.738,0
1540168597.901,31.250,27.832,25.879,6.836,-9.766,0
1540168597.905,30.273,31.250,35.645,31.250,-28.320,0
1540168597.909,37.109,35.156,31.738,30.762,-45.410,0
1540168597.913,21.973,33.203,23.438,33.691,-17.578,0
1540168597.916,7.324,33.203,23.438,23.438,9.766,0
1540168597.920,33.203,20.020,46.387,25.879,-16.113,0
1540168597.924,24.414,31.250,47.852,22.949,-24.902,0
1540168597.928,13.184,33.203,29.297,7.324,18.066,0
1540168597.932,33.203,28.320,29.785,-8.789,52.246,0
1540168597.936,24.902,39.062,25.391,6.348,42.480,0
1540168597.940,-17.578,34.180,29.297,20.508,21.973,0
1540168597.944,-29.297,39.551,16.602,-32.715,39.551,0
1540168597.948,11.230,46.875,12.695,-20.996,71.777,0
1540168597.952,9.277,40.039,24.902,0.000,69.824,0
1540168597.955,-37.598,42.969,20.508,-42.480,45.410,0
1540168597.959,-64.453,47.363,12.207,-57.617,29.785,0
1540168597.963,-57.129,44.922,18.066,-77.148,80.566,0
1540168597.967,-34.668,52.734,16.602,-66.406,123.535,0
1540168597.971,-65.918,56.152,13.672,-56.152,88.379,0
1540168597.975,-89.844,55.176,1.465,-83.984,66.406,0
1540168597.979,-56.152,63.965,9.766,-68.359,88.867,0
1540168597.983,-79.102,76.660,13.184,-59.570,116.699,0
1540168597.987,-110.352,58.594,23.926,-81.543,93.750,0
1540168597.991,-63.477,66.406,19.531,-76.660,54.199,0
1540168597.995,-48.340,80.078,14.648,-56.641,66.895,0
1540168597.998,-54.688,71.777,17.090,-57.617,110.840,0
1540168598.002,-46.387,75.195,-4.883,-75.684,131.836,0
1540168598.006,-60.547,75.195,17.090,-66.895,80.566,0
1540168598.010,-64.453,74.219,22.949,-39.062,62.012,0
1540168598.014,-33.203,60.059,19.531,-55.664,116.211,0
1540168598.018,-50.293,68.848,20.508,-56.152,118.164,0
1540168598.022,-43.457,66.406,16.602,-33.691,48.828,0
1540168598.026,-1.953,49.805,21.484,-18.066,32.715,0
1540168598.030,-15.137,59.570,12.695,-39.551,66.406,0
1540168598.034,-27.344,48.828,16.602,-36.621,93.750,0
1540168598.038,-1.953,42.969,24.902,9.766,55.176,0
1540168598.041,4.883,41.016,29.297,-1.465,-4.883,0
1540168598.045,-3.418,44.434,18.066,-6.348,66.895,0
1540168598.049,-18.066,42.969,18.555,13.672,115.723,0
1540168598.053,5.859,22.949,23.438,11.719,66.895,0
1540168598.057,37.109,30.762,12.207,1.953,6.836,0
1540168598.061,5.859,37.109,20.020,5.859,51.758,0
1540168598.065,4.883,25.879,23.926,10.742,108.887,0
1540168598.069,27.344,14.648,35.645,14.648,66.406,0
1540168598.073,19.531,14.160,44.922,27.344,9.277,0
1540168598.077,44.922,27.832,19.043,48.828,28.809,1
1540168598.080,35.156,22.461,40.527,30.762,101.562,0
1540168598.084,2.441,30.762,40.527,11.230,64.941,0
1540168598.088,27.344,33.691,14.648,24.902,14.648,0
1540168598.092,66.406,11.230,25.391,40.527,48.828,0
1540168598.096,70.312,14.648,38.574,48.828,68.848,0
1540168598.100,62.988,15.137,50.293,50.293,59.570,0
1540168598.104,34.668,31.738,31.738,36.133,31.738,0
1540168598.108,33.691,36.133,24.414,35.645,11.719,0
1540168598.112,61.035,13.672,27.832,60.547,33.691,0
1540168598.116,69.824,16.602,24.414,64.453,48.340,0
1540168598.120,51.270,15.625,41.992,38.086,32.227,0
1540168598.123,53.223,17.578,36.621,44.434,0.000,0
1540168598.127,60.547,27.832,27.832,69.824,24.414,0
1540168598.131,42.480,2.441,44.922,42.969,66.895,0
1540168598.135,41.504,17.578,27.344,45.898,30.273,0
1540168598.139,66.406,34.180,22.949,89.844,-11.719,0
1540168598.143,65.918,20.508,38.574,72.266,-20.020,0
1540168598.147,56.152,18.066,42.969,48.340,10.254,0
1540168598.151,56.641,18.555,41.016,60.059,48.828,0
1540168598.155,65.918,29.785,27.344,73.730,7.324,0
1540168598.159,52.734,25.391,28.809,66.895,-10.742,0
1540168598.163,37.598,23.438,30.273,71.289,-3.906,0
1540168598.166,62.012,23.926,28.320,55.176,11.230,0
1540168598.170,62.988,24.902,25.879,68.359,-33.203,0
1540168598.174,72.754,19.043,34.668,83.984,-51.758,0
1540168598.178,70.801,19.531,42.969,59.082,-5.371,0
1540168598.182,76.172,24.902,27.832,50.781,-4.883,0
1540168598.186,82.031,20.508,29.785,52.246,1.465,0
1540168598.190,78.125,27.832,41.016,52.734,-22.949,0
1540168598.194,71.777,17.578,43.457,35.645,-28.809,0
1540168598.198,53.223,19.043,34.668,34.180,24.902,0
1540168598.202,74.219,35.645,21.973,67.383,-2.930,0
1540168598.205,94.727,19.043,33.203,73.730,-63.965,0
1540168598.209,58.105,16.113,39.551,49.316,-52.246,0
1540168598.213,45.898,23.926,21.973,60.059,-5.371,0
1540168598.217,61.523,22.949,21.484,80.566,-9.766,0
1540168598.221,43.457,25.879,31.738,48.340,-35.645,0
1540168598.225,50.293,11.719,35.156,61.523,-77.637,0
1540168598.229,63.477,15.625,39.062,87.891,-32.715,0
1540168598.233,66.406,22.949,42.969,68.848,-15.625,0
1540168598.237,52.246,39.062,31.738,24.902,-64.453,0
1540168598.241,61.523,35.156,23.926,51.270,-93.750,0
1540168598.245,59.570,28.320,31.250,82.520,-93.750,0
1540168598.248,46.875,30.273,41.992,51.270,-39.551,0
1540168598.252,41.504,18.066,35.156,27.344,-31.250,0
1540168598.256,50.781,33.691,11.719,40.527,-55.664,0
1540168598.260,61.035,25.391,19.531,64.453,-51.758,0
1540168598.264,57.129,21.973,23.438,64.941,-32.715,0
1540168598.268,48.340,21.484,38.086,58.594,-27.344,0
1540168598.272,43.945,27.832,25.391,41.016,-35.156,0
1540168598.276,43.457,26.367,26.855,44.434,-34.180,0
1540168598.280,35.156,25.391,38.086,14.160,-18.066,0
1540168598.284,36.133,34.668,20.020,7.812,-16.113,0
1540168598.288,32.227,28.320,24.902,39.062,-69.336,0
1540168598.291,57.617,18.066,30.273,52.246,-78.125,0
1540168598.295,49.805,26.367,32.227,57.129,-25.879,0
1540168598.299,35.645,26.855,32.227,46.387,3.906,0
1540168598.303,45.410,20.508,31.738,42.480,0.000,0
1540168598.307,24.902,20.996,35.156,41.016,-36.133,0
1540168598.311,57.617,32.715,24.902,40.527,-14.160,0
1540168598.315,53.223,23.438,33.691,31.250,20.020,0
1540168598.319,41.504,6.348,37.598,22.949,-2.441,0
1540168598.323,54.688,28.320,15.137,45.410,-53.711,0
1540168598.327,46.387,33.203,24.414,62.500,-65.430,0
1540168598.330,45.410,27.832,36.621,48.340,-20.508,0
1540168598.334,46.875,30.762,24.902,40.039,26.367,0
1540168598.338,47.852,26.367,35.156,35.645,27.344,0
1540168598.342,63.477,25.879,31.738,42.969,-46.387,0
1540168598.346,49.805,32.227,31.738,43.457,-27.344,0
1540168598.350,42.480,23.438,44.434,23.926,-8.301,0
1540168598.354,44.434,14.160,37.109,21.973,-9.277,0
1540168598.358,55.176,20.508,38.086,43.457,6.836,0
1540168598.362,57.617,28.809,42.480,52.246,10.742,0
1540168598.366,46.875,23.926,52.734,45.410,11.719,0
1540168598.370,42.969,31.250,39.062,20.996,-27.344,0
1540168598.373,45.410,37.598,22.461,21.484,-52.246,0
1540168598.377,49.316,28.809,26.367,39.551,5.371,0
1540168598.381,27.832,36.133,26.855,31.738,23.926,0
1540168598.385,48.828,38.574,30.273,41.504,-3.906,0
1540168598.389,77.148,22.949,29.785,31.250,-37.109,0
1540168598.393,64.941,23.926,24.902,34.180,-23.438,0
1540168598.397,52.734,29.297,38.086,34.180,7.812,0
1540168598.401,41.504,28.320,41.016,23.438,-3.418,0
1540168598.405,47.852,36.133,25.391,47.852,-8.789,0
1540168598.409,54.199,33.203,24.414,55.664,-14.160,0
1540168598.413,45.898,35.156,33.203,32.715,8.301,0
1540168598.416,26.855,36.133,40.039,26.855,31.738,0
1540168598.420,19.043,23.926,30.762,31.250,-6.836,0
1540168598.424,26.855,28.809,31.738,21.973,-3.418,0
1540168598.428,42.480,31.738,27.344,19.043,35.156,0
1540168598.432,67.383,25.879,19.043,34.668,16.113,0
1540168598.436,47.852,34.180,27.832,44.922,1.953,0
1540168598.440,41.504,37.598,33.691,30.762,1.465,0
1540168598.444,49.805,35.156,28.320,21.484,25.879,0
1540168598.448,41.992,35.645,31.738,44.434,41.992,0
1540168598.452,51.758,27.832,37.598,47.363,24.414,0
1540168598.455,30.762,41.992,44.434,12.207,18.066,0
1540168598.459,23.438,40.527,39.551,14.648,23.926,0
1540168598.463,24.902,36.621,38.574,31.250,15.625,0
1540168598.467,18.066,39.551,43.945,42.969,-10.254,0
1540168598.471,32.715,31.250,31.250,50.293,-17.578,0
1540168598.475,49.805,30.762,38.086,27.832,-23.926,0
1540168598.479,60.059,26.855,45.898,43.945,-13.184,0
1540168598.483,34.180,28.320,46.875,47.852,-0.977,0
1540168598.487,27.344,31.738,42.969,26.855,33.203,0
1540168598.491,44.922,33.691,32.227,18.555,41.016,0
1540168598.495,28.809,37.598,35.645,26.367,20.508,0
1540168598.498,35.645,41.992,35.645,40.527,55.176,0
1540168598.502,43.457,23.438,42.480,48.828,20.020,0
1540168598.506,37.598,21.484,51.270,40.039,-6.836,0
1540168598.510,32.715,31.250,25.879,32.715,7.812,0
1540168598.514,45.410,21.973,37.109,50.781,46.875,0
1540168598.518,33.203,18.555,44.434,52.246,18.066,0
1540168598.522,40.527,27.832,31.738,52.246,-32.715,0
1540168598.526,44.434,36.621,34.668,43.945,12.207,0
1540168598.530,32.715,25.879,41.016,38.574,-7.812,0
1540168598.534,42.969,28.320,32.227,48.828,-20.996,0
1540168598.538,37.109,44.434,32.715,46.875,49.805,0
1540168598.541,47.363,26.855,37.598,49.805,20.996,0
1540168598.545,53.223,17.578,38.574,30.762,15.625,0
1540168598.549,26.367,23.438,48.828,29.297,37.598,0
1540168598.553,36.133,20.996,41.992,35.156,26.855,0
1540168598.557,46.875,22.461,39.062,36.621,28.809,0
1540168598.561,32.227,31.250,40.039,55.176,29.297,0
1540168598.565,21.973,24.902,62.012,26.855,16.602,0
1540168598.569,17.578,25.879,45.898,31.738,4.883,0
1540168598.573,35.645,28.320,29.297,38.574,4.883,0
1540168598.577,46.875,24.902,34.180,33.203,-11.230,0
1540168598.580,46.387,22.949,36.621,26.855,46.387,0
1540168598.584,20.996,35.156,46.387,10.254,77.148,0
1540168598.588,27.344,41.504,30.762,37.598,36.621,0
1540168598.592,51.758,28.320,24.902,57.129,-23.438,0
1540168598.596,41.504,24.414,48.340,50.293,0.000,0
1540168598.600,19.531,26.855,48.340,23.438,14.648,0
1540168598.604,10.742,38.086,34.180,16.602,15.137,0
1540168598.608,25.391,40.039,38.574,41.016,15.625,0
1540168598.612,26.855,32.715,41.504,34.668,-20.020,0
1540168598.616,34.180,32.227,30.273,39.551,-26.367,0
1540168598.620,20.508,25.391,33.203,26.855,-3.906,0
1540168598.623,28.809,27.832,39.062,25.391,25.391,0
1540168598.627,60.059,38.574,26.855,50.293,27.832,0
1540168598.631,34.180,41.016,28.809,24.902,40.527,0
1540168598.635,29.297,29.785,26.367,28.809,30.273,0
1540168598.639,40.039,21.973,46.387,37.598,-18.555,0
1540168598.643,38.574,26.367,43.945,21.973,-36.133,0
1540168598.647,46.875,27.832,23.926,41.504,23.438,0
1540168598.651,35.156,28.809,37.598,31.738,47.363,0
1540168598.655,39.062,27.832,36.621,29.785,21.973,0
1540168598.659,39.551,34.180,33.691,44.922,50.781,0
1540168598.663,32.227,22.949,47.852,34.668,14.648,0
1540168598.666,34.180,20.020,51.270,19.531,-19.531,0
1540168598.670,43.457,34.668,30.762,30.762,15.137,1
1540168598.674,43.945,32.227,25.391,41.504,-19.043,0
1540168598.678,40.527,32.715,28.809,35.645,-11.719,0
1540168598.682,38.574,32.715,40.039,26.367,1.465,0
1540168598.686,39.551,30.762,33.691,34.668,21.973,0
1540168598.690,59.082,36.621,29.297,48.828,15.625,0
1540168598.694,52.734,35.645,38.574,45.898,-12.695,0
1540168598.698,40.527,32.715,42.480,41.992,70.801,0
1540168598.702,35.156,28.320,43.945,29.785,69.336,0
1540168598.705,35.156,34.180,34.668,21.484,31.250,0
1540168598.709,44.434,40.527,40.039,45.410,50.293,0
1540168598.713,62.012,27.344,52.734,38.574,13.672,0
1540168598.717,63.965,38.086,43.457,20.508,28.809,0
1540168598.721,61.523,49.805,24.414,45.898,62.988,0
1540168598.725,51.758,30.762,43.457,43.457,60.547,0
1540168598.729,47.363,37.109,40.527,27.344,26.855,0
1540168598.733,41.504,36.133,32.715,42.480,22.949,0
1540168598.737,35.156,15.137,44.434,54.199,10.254,0
1540168598.741,39.551,19.043,50.781,31.250,18.555,0
1540168598.745,47.363,31.738,45.410,45.410,44.922,0
1540168598.748,41.016,30.762,46.875,48.340,4.395,0
1540168598.752,31.738,25.879,44.922,41.504,25.391,0
1540168598.756,34.180,33.203,41.504,33.203,99.609,0
1540168598.760,41.504,32.715,34.668,32.715,58.105,0
1540168598.764,45.898,31.738,36.133,46.875,64.453,0
1540168598.768,33.203,35.645,42.969,34.668,23.926,0
1540168598.772,20.996,36.621,36.621,22.949,-21.973,0
1540168598.776,24.902,32.715,40.527,27.832,25.879,0
1540168598.780,40.039,22.461,44.922,38.086,6.836,0
1540168598.784,40.039,24.414,39.551,40.527,66.406,0
1540168598.788,36.133,24.902,35.156,36.621,33.203,0
1540168598.791,39.062,29.785,38.574,29.297,6.348,0
1540168598.795,31.738,32.227,40.527,32.715,32.715,0
1540168598.799,27.344,28.809,31.250,34.180,-29.785,0
1540168598.803,22.461,26.855,25.391,22.461,27.832,0
1540168598.807,21.973,28.809,30.762,18.555,38.086,0
1540168598.811,25.879,28.320,35.645,27.832,-27.832,0
1540168598.815,20.508,27.832,36.133,31.250,12.695,0
1540168598.819,6.348,30.762,31.738,22.949,65.430,0
1540168598.823,2.441,25.391,26.855,17.090,22.949,0
1540168598.827,19.531,25.391,29.785,25.391,24.902,0
1540168598.830,20.020,31.250,31.738,24.902,54.688,0
1540168598.834,20.020,21.484,34.668,19.043,45.410,0
1540168598.838,38.086,28.809,33.203,15.625,40.039,0
1540168598.842,46.387,34.668,26.367,16.602,39.551,0
1540168598.846,54.199,22.461,29.297,25.391,43.457,0
1540168598.850,62.012,21.973,30.762,27.832,46.387,0
1540168598.854,53.711,24.902,32.227,18.066,44.922,0
1540168598.858,48.340,26.367,36.133,18.555,75.195,0
1540168598.862,48.828,26.367,35.645,24.902,16.113,0
1540168598.866,41.504,25.391,36.621,27.344,-42.480,0
1540168598.870,31.250,24.902,41.504,31.250,-15.137,0
1540168598.873,27.832,25.879,38.574,26.367,5.859,0
1540168598.877,26.855,24.902,38.086,29.297,10.254,0
1540168598.881,26.855,22.949,44.922,34.668,41.504,0
1540168598.885,26.855,21.484,44.434,29.785,50.781,0
1540168598.889,29.297,21.973,41.992,33.691,-2.930,0
1540168598.893,33.691,24.902,41.016,41.016,31.250,0
1540168598.897,39.062,26.367,39.551,43.945,60.547,0
1540168598.901,36.133,27.344,41.016,40.039,70.801,0
1540168598.905,32.715,26.855,40.527,34.180,32.715,0
1540168598.909,28.320,26.855,40.039,29.297,11.230,0
1540168598.913,30.762,27.832,39.551,30.762,34.180,0
1540168598.916,37.109,25.391,42.480,40.527,43.457,0
1540168598.920,34.668,24.902,48.340,40.527,17.578,0
1540168598.924,32.715,24.902,47.852,35.645,18.555,0
1540168598.928,35.645,28.809,39.551,38.086,29.297,0
1540168598.932,33.203,35.156,29.785,34.180,-7.324,0
1540168598.936,22.949,34.180,32.227,29.785,49.316,0
1540168598.940,28.320,34.668,40.527,25.879,67.871,0
1540168598.944,35.645,35.645,43.457,27.832,-29.297,0
1540168598.948,32.715,28.809,41.992,30.273,-48.828,0
1540168598.952,30.273,27.344,42.480,26.855,12.695,0
