timestamps,TP9,AF7,AF8,TP10,Right AUX,Marker
1540168717.967,47.852,29.297,30.762,44.434,66.406,0
1540168717.971,52.734,25.879,33.203,49.316,53.223,0
1540168717.975,49.316,28.809,30.273,48.340,-40.039,0
1540168717.979,48.828,33.203,30.762,45.898,-10.742,0
1540168717.983,46.387,30.762,31.250,40.039,79.102,0
1540168717.987,44.434,35.645,36.621,41.504,24.414,0
1540168717.991,37.109,39.551,33.203,40.039,-3.906,0
1540168717.995,28.320,37.598,25.879,27.832,23.438,0
1540168717.998,14.648,39.551,20.508,14.160,38.574,0
1540168718.002,13.184,42.480,22.461,13.672,101.074,0
1540168718.006,13.184,47.852,30.273,13.184,83.496,0
1540168718.010,-0.488,49.316,36.133,3.418,11.719,0
1540168718.014,-9.766,43.945,29.785,-7.324,28.320,0
1540168718.018,-15.137,44.922,22.949,-10.254,46.387,0
1540168718.022,-11.719,46.875,16.602,-13.184,20.508,0
1540168718.026,-17.578,48.828,16.602,-20.020,22.461,0
1540168718.030,-27.344,52.734,22.949,-38.574,-43.945,0
1540168718.034,-26.855,53.223,25.391,-37.109,-27.832,0
1540168718.038,-36.621,47.363,25.391,-28.809,28.809,0
1540168718.041,-39.551,47.363,25.879,-30.273,65.918,0
1540168718.045,-24.414,50.293,25.879,-30.762,35.645,0
1540168718.049,-28.320,50.781,21.484,-27.344,-38.086,0
1540168718.053,-26.367,49.805,15.137,-22.949,43.945,0
1540168718.057,-18.066,39.551,19.531,-20.996,48.340,0
1540168718.061,-24.414,32.227,28.320,-24.414,16.602,0
1540168718.065,-24.902,42.969,26.367,-22.949,60.059,0
1540168718.069,-19.531,48.828,25.391,-19.043,63.477,1
1540168718.073,-8.789,40.039,29.297,-11.719,9.277,0
1540168718.077,-2.930,46.875,31.738,-5.371,51.270,0
1540168718.080,-3.418,48.828,31.250,-7.324,78.125,0
1540168718.084,2.441,43.945,31.738,3.418,24.414,0
1540168718.088,7.812,40.527,32.227,7.812,33.203,0
1540168718.092,1.465,36.621,29.297,1.465,41.992,0
1540168718.096,12.207,45.410,29.785,4.883,35.156,0
1540168718.100,17.090,47.363,29.785,12.207,8.789,0
1540168718.104,5.859,45.898,28.320,6.348,16.113,0
1540168718.108,2.930,41.992,30.273,9.277,40.527,0
1540168718.112,2.441,29.297,30.762,13.184,39.062,0
1540168718.116,2.441,30.762,29.297,13.672,45.898,0
1540168718.120,1.465,34.668,27.832,14.160,76.660,0
1540168718.123,7.324,22.461,29.297,11.719,42.969,0
1540168718.127,13.184,19.531,31.738,15.625,-24.902,0
1540168718.131,13.184,28.320,33.203,9.277,18.555,0
1540168718.135,19.043,28.809,34.668,17.090,80.078,0
1540168718.139,25.391,16.602,40.039,32.227,7.812,0
1540168718.143,28.809,17.578,44.434,36.621,9.277,0
1540168718.147,32.227,24.414,38.574,40.527,17.090,0
1540168718.151,40.039,21.484,39.551,49.805,35.156,0
1540168718.155,53.223,17.578,46.875,60.059,17.090,0
1540168718.159,58.105,15.137,45.410,62.012,-35.645,0
1540168718.163,59.082,14.648,40.527,56.641,-38.086,0
1540168718.166,55.664,17.578,39.062,52.246,20.020,0
1540168718.170,55.664,20.508,41.016,62.012,53.711,0
1540168718.174,45.898,18.066,43.457,67.871,21.484,0
1540168718.178,48.340,17.090,36.621,54.688,47.363,0
1540168718.182,57.129,12.695,33.203,53.223,33.203,0
1540168718.186,53.223,-0.488,34.668,66.406,34.180,0
1540168718.190,48.828,1.465,32.227,64.453,19.043,0
1540168718.194,45.898,27.832,33.691,60.547,31.738,0
1540168718.198,53.223,35.645,35.645,60.547,22.949,0
1540168718.202,58.594,23.926,33.203,62.988,-13.672,0
1540168718.205,57.129,21.484,30.273,62.988,53.223,0
1540168718.209,59.082,20.508,36.133,66.406,100.586,0
1540168718.213,69.336,17.090,34.668,62.012,82.031,0
1540168718.217,71.289,18.066,28.809,59.570,95.215,0
1540168718.221,69.336,14.160,33.691,68.848,87.891,0
1540168718.225,60.059,18.066,34.180,63.477,33.691,0
1540168718.229,52.246,20.996,30.762,56.641,30.273,0
1540168718.233,61.035,22.949,30.762,68.848,66.895,0
1540168718.237,62.988,26.367,32.227,81.055,80.078,0
1540168718.241,60.059,21.973,31.250,70.312,66.895,0
1540168718.245,63.477,20.020,29.297,60.059,60.059,0
1540168718.248,62.500,12.695,30.762,65.430,-13.184,0
1540168718.252,63.965,9.277,33.203,71.289,1.953,0
1540168718.256,67.871,25.879,35.645,62.500,19.531,0
1540168718.260,63.965,37.109,31.738,59.570,25.879,0
1540168718.264,56.641,37.109,28.809,57.617,34.668,0
1540168718.268,55.664,34.180,30.762,51.758,24.902,0
1540168718.272,58.594,29.297,32.715,59.570,27.344,0
1540168718.276,56.641,24.414,36.133,49.805,30.273,0
1540168718.280,56.152,19.043,30.273,40.039,44.922,0
1540168718.284,51.758,23.926,28.809,47.852,20.996,0
1540168718.288,46.875,27.832,33.203,41.992,30.762,0
1540168718.291,44.434,18.066,37.109,47.363,35.156,0
1540168718.295,40.039,18.555,40.039,47.852,30.762,0
1540168718.299,45.898,27.344,37.109,41.016,42.480,0
1540168718.303,52.246,30.762,29.297,48.340,17.090,0
1540168718.307,46.387,30.273,27.832,48.828,20.508,0
1540168718.311,47.852,28.320,32.715,48.340,67.871,0
1540168718.315,52.246,26.367,34.180,45.410,42.480,0
1540168718.319,48.828,23.926,35.156,44.922,35.156,0
1540168718.323,47.363,23.438,31.250,41.992,-14.648,0
1540168718.327,45.410,24.414,33.203,42.480,-40.527,0
1540168718.330,49.316,24.902,36.621,44.434,20.508,0
1540168718.334,46.875,23.438,32.227,36.621,21.484,0
1540168718.338,42.969,24.902,32.715,39.551,10.742,0
1540168718.342,38.086,29.297,36.621,43.945,19.531,0
1540168718.346,34.180,23.926,38.086,36.621,63.477,0
1540168718.350,42.480,16.602,35.156,28.809,108.887,0
1540168718.354,50.293,19.531,31.738,39.062,41.016,0
1540168718.358,42.969,30.273,28.320,49.805,-37.598,0
1540168718.362,35.156,34.668,29.297,41.992,-5.371,0
1540168718.366,31.250,41.016,37.109,30.762,28.809,0
1540168718.370,34.668,43.457,40.039,36.621,-11.719,0
1540168718.373,35.156,32.715,37.598,40.527,0.488,0
1540168718.377,34.180,27.832,38.086,36.133,1.465,0
1540168718.381,33.691,25.391,35.645,34.668,-0.488,0
1540168718.385,30.762,25.391,35.645,35.645,-14.160,0
1540168718.389,37.109,29.297,36.621,26.855,6.348,0
1540168718.393,30.762,15.625,33.203,25.391,17.090,0
1540168718.397,30.762,15.137,36.133,35.156,2.930,0
1540168718.401,38.574,32.715,34.180,38.086,-19.531,0
1540168718.405,41.504,34.180,29.785,36.621,-34.668,0
1540168718.409,41.992,31.738,32.715,33.691,42.480,0
1540168718.413,42.969,32.715,33.203,32.227,62.500,0
1540168718.416,46.387,32.715,38.086,39.062,39.062,0
1540168718.420,43.457,32.715,41.504,48.828,34.668,0
1540168718.424,39.551,32.715,39.062,46.875,14.160,0
1540168718.428,42.480,26.855,31.250,36.621,33.203,0
1540168718.432,40.527,21.973,25.391,33.203,83.984,0
1540168718.436,49.316,29.297,28.809,33.203,35.156,0
1540168718.440,59.570,35.645,30.273,25.879,-1.953,0
1540168718.444,63.965,39.062,32.227,26.855,5.859,0
1540168718.448,69.336,27.832,36.133,35.156,0.488,0
1540168718.452,72.266,15.625,36.133,41.016,7.324,0
1540168718.455,69.336,29.297,31.738,34.668,10.254,0
1540168718.459,50.781,38.574,28.809,24.902,16.602,0
1540168718.463,44.922,33.691,30.273,34.180,56.641,0
1540168718.467,47.363,31.250,32.715,39.551,43.945,0
1540168718.471,39.062,31.738,33.691,42.480,1.953,0
1540168718.475,30.762,29.297,32.227,45.410,21.484,0
1540168718.479,33.691,27.344,31.738,43.945,-19.043,0
1540168718.483,44.434,25.391,34.668,45.898,4.883,0
1540168718.487,44.922,22.949,35.156,52.246,74.219,0
1540168718.491,41.504,21.484,31.738,54.688,62.500,0
1540168718.495,39.062,29.785,27.344,38.574,3.906,0
1540168718.498,42.969,31.738,29.785,34.668,-15.625,0
1540168718.502,44.922,32.715,35.156,40.527,31.738,0
1540168718.506,37.598,25.879,31.250,39.062,76.660,0
1540168718.510,31.738,15.625,31.250,43.457,96.680,0
1540168718.514,34.180,28.809,34.668,39.551,65.918,0
1540168718.518,37.598,36.621,33.691,40.039,9.277,0
1540168718.522,39.551,35.156,35.156,47.852,33.203,0
1540168718.526,39.062,36.621,32.715,43.457,52.246,0
1540168718.530,35.645,38.574,27.832,42.480,-19.531,0
1540168718.534,35.156,38.086,26.855,42.969,0.000,0
1540168718.538,41.504,34.180,28.320,40.039,68.848,0
1540168718.541,39.551,30.273,28.320,40.527,13.184,0
1540168718.545,38.086,29.297,33.203,41.016,-24.902,0
1540168718.549,42.480,25.391,37.109,47.363,-11.230,0
1540168718.553,47.852,21.973,37.598,49.805,9.277,0
1540168718.557,51.758,22.949,37.109,41.992,14.648,0
1540168718.561,51.270,27.344,32.227,40.527,50.781,0
1540168718.565,48.340,27.344,28.809,39.062,22.949,0
1540168718.569,48.340,26.855,30.273,41.504,19.043,0
1540168718.573,49.805,28.320,34.668,45.410,39.062,0
1540168718.577,42.969,26.367,33.691,41.504,51.758,0
1540168718.580,55.176,28.320,31.738,40.039,33.203,0
1540168718.584,62.500,31.250,34.180,46.875,27.344,0
1540168718.588,52.246,30.762,34.180,47.363,36.133,0
1540168718.592,54.199,30.762,33.203,44.434,15.625,0
1540168718.596,56.641,32.715,33.691,44.922,3.418,0
1540168718.600,49.805,28.320,33.691,41.504,-16.113,0
1540168718.604,49.805,27.344,33.203,41.016,-26.367,0
1540168718.608,46.387,26.855,33.691,41.504,21.484,0
1540168718.612,38.574,25.879,34.180,35.156,62.500,0
1540168718.616,39.062,19.531,35.156,27.344,41.504,0
1540168718.620,49.316,14.648,32.715,34.180,45.898,0
1540168718.623,54.688,14.648,32.227,39.551,22.461,0
1540168718.627,51.270,10.742,36.133,36.133,-13.184,0
1540168718.631,48.340,23.926,35.156,32.227,24.902,0
1540168718.635,49.316,37.598,29.297,33.691,14.160,0
1540168718.639,47.852,41.016,27.832,34.180,36.133,0
1540168718.643,44.434,42.969,30.762,30.273,71.289,1
1540168718.647,44.434,42.480,34.180,29.785,49.316,0
1540168718.651,41.016,37.598,32.227,29.785,50.293,0
1540168718.655,44.922,35.645,31.738,34.668,46.875,0
1540168718.659,44.922,37.598,34.180,32.227,14.648,0
1540168718.663,43.945,32.715,29.297,29.785,23.926,0
1540168718.666,46.387,26.367,26.367,35.156,19.043,0
1540168718.670,46.387,28.320,30.762,40.039,-11.230,0
1540168718.674,45.898,31.250,35.156,35.156,27.832,0
1540168718.678,41.992,26.855,34.180,23.438,1.953,0
1540168718.682,39.551,23.926,34.668,23.926,3.906,0
1540168718.686,44.434,27.344,36.621,27.832,30.762,0
1540168718.690,46.387,28.809,36.621,29.297,44.434,0
1540168718.694,43.945,26.367,34.180,34.668,39.551,0
1540168718.698,43.945,19.531,34.668,32.227,35.156,0
1540168718.702,41.992,23.926,32.227,28.320,59.082,0
1540168718.705,41.504,31.738,25.879,34.668,49.805,0
1540168718.709,38.574,31.250,27.832,39.551,38.574,0
1540168718.713,40.527,28.809,34.668,37.109,20.508,0
1540168718.717,43.457,29.297,35.645,37.598,18.555,0
1540168718.721,42.969,27.344,33.691,43.457,41.992,0
1540168718.725,41.992,25.879,32.715,41.992,44.922,0
1540168718.729,43.945,29.785,36.621,43.945,31.250,0
1540168718.733,43.945,31.250,35.645,49.805,-0.488,0
1540168718.737,44.434,30.762,29.297,48.828,7.324,0
1540168718.741,42.969,32.715,35.156,44.434,-4.883,0
1540168718.745,39.551,38.086,38.574,39.062,-10.742,0
1540168718.748,41.504,40.039,36.621,41.504,-9.277,0
1540168718.752,44.922,38.574,33.203,47.363,-24.902,0
1540168718.756,41.504,36.133,31.250,43.457,22.949,0
1540168718.760,33.691,32.715,34.180,39.551,-12.207,0
1540168718.764,28.809,29.785,36.133,33.691,-28.809,0
1540168718.768,28.320,35.645,38.086,33.203,37.598,0
1540168718.772,34.180,39.062,40.527,34.668,30.762,0
1540168718.776,29.785,36.621,37.109,34.180,52.734,0
1540168718.780,30.273,38.086,31.738,29.785,33.203,0
1540168718.784,34.668,34.668,31.250,28.809,-44.434,0
1540168718.788,32.227,29.785,30.762,37.598,6.348,0
1540168718.791,32.715,33.203,33.691,36.621,48.340,0
1540168718.795,31.738,31.250,33.691,29.785,10.742,0
1540168718.799,31.738,30.273,33.691,32.227,72.266,0
1540168718.803,36.133,33.691,36.621,38.574,71.777,0
1540168718.807,36.133,32.715,38.086,39.551,17.578,0
1540168718.811,33.691,31.250,35.156,37.598,-0.488,0
1540168718.815,34.180,29.785,30.762,33.691,-7.324,0
1540168718.819,36.133,24.414,28.320,34.180,-14.160,0
1540168718.823,39.551,27.832,29.785,35.645,34.180,0
1540168718.827,35.645,36.621,38.574,34.668,58.594,0
1540168718.830,34.180,37.109,44.434,32.715,59.570,0
1540168718.834,41.992,30.273,42.480,29.785,59.570,0
1540168718.838,43.945,29.297,35.156,28.809,3.418,0
1540168718.842,33.203,37.598,28.320,28.809,35.156,0
1540168718.846,28.320,32.715,26.367,28.809,64.453,0
1540168718.850,30.273,24.414,27.344,25.391,35.645,0
1540168718.854,38.574,31.250,31.250,23.926,36.621,0
1540168718.858,39.062,32.227,35.645,27.832,2.930,0
1540168718.862,28.320,26.855,36.621,23.438,-3.906,0
1540168718.866,27.344,26.367,37.109,22.461,22.461,0
1540168718.870,30.762,24.902,37.109,31.250,20.996,0
1540168718.873,33.203,25.879,33.691,36.621,43.457,0
1540168718.877,30.273,30.273,32.715,30.273,81.055,0
1540168718.881,31.250,31.250,31.250,25.391,78.613,0
1540168718.885,33.691,30.273,32.227,31.250,60.059,0
1540168718.889,36.133,31.738,34.668,41.016,58.594,0
1540168718.893,39.551,32.715,33.691,38.086,52.246,0
1540168718.897,35.156,31.250,36.621,28.809,3.418,0
1540168718.901,30.273,29.785,38.086,33.691,-1.465,0
1540168718.905,33.203,31.250,34.668,37.109,21.484,0
1540168718.909,28.320,29.785,31.738,31.738,57.129,0
1540168718.913,23.926,27.832,31.738,27.832,107.422,0
1540168718.916,27.832,25.391,35.156,27.344,77.148,0
1540168718.920,34.180,22.949,37.598,33.691,11.719,0
1540168718.924,36.621,16.113,40.039,38.574,16.602,0
1540168718.928,37.598,20.020,36.133,34.668,39.062,0
1540168718.932,37.109,35.645,31.738,26.855,21.973,0
1540168718.936,37.598,42.480,32.715,27.832,42.969,0
1540168718.940,41.016,43.457,30.273,32.227,12.207,0
1540168718.944,32.715,42.480,29.297,32.227,-17.090,0
1540168718.948,26.855,41.992,29.785,32.227,-1.953,0
1540168718.952,31.738,39.062,29.785,36.133,9.277,0
1540168718.955,34.180,33.203,32.227,37.109,20.020,0
1540168718.959,30.273,33.203,30.762,34.180,49.805,0
1540168718.963,28.809,36.621,29.297,31.250,88.867,0
1540168718.967,28.809,31.250,34.180,30.762,70.312,0
1540168718.971,34.668,26.855,38.574,39.551,26.855,0
1540168718.975,34.180,27.344,38.574,42.480,10.254,0
1540168718.979,30.762,30.762,35.156,39.551,36.621,0
1540168718.983,29.785,34.668,27.832,37.109,28.809,0
1540168718.987,32.227,35.156,29.297,35.645,28.320,0
1540168718.991,32.227,33.203,34.668,38.086,79.102,0
1540168718.995,26.855,30.273,33.203,29.297,35.156,0
1540168718.998,28.320,29.785,31.250,15.625,38.086,0
1540168719.002,23.926,31.738,28.809,19.043,20.508,0
1540168719.006,22.461,32.227,27.344,23.926,18.066,0
1540168719.010,22.949,35.156,27.344,24.414,73.242,0
1540168719.014,22.949,40.527,22.949,22.461,41.992,0
1540168719.018,24.902,29.785,24.414,25.391,10.742,0
1540168719.022,25.879,29.785,23.926,24.414,-16.113,0
1540168719.026,23.926,39.551,23.438,20.996,18.555,0
1540168719.030,20.020,38.086,27.832,20.508,48.828,0
1540168719.034,18.555,37.598,24.414,22.949,6.348,0
1540168719.038,23.926,35.645,22.949,32.715,27.344,0
1540168719.041,21.973,34.668,24.414,31.738,14.160,0
1540168719.045,22.461,30.273,25.879,24.414,10.742,0
1540168719.049,25.391,27.344,30.762,25.391,5.371,0
1540168719.053,28.320,34.668,33.203,28.809,-15.625,0
1540168719.057,30.762,28.809,32.715,29.297,61.035,0
1540168719.061,30.762,22.949,32.227,23.926,38.086,0
1540168719.065,28.320,30.273,31.738,22.949,45.898,0
1540168719.069,25.391,34.180,32.715,29.785,11.719,0
1540168719.073,27.832,37.109,32.715,30.762,-21.484,0
1540168719.077,29.297,38.086,28.320,23.438,55.176,0
1540168719.080,26.855,34.668,26.367,18.555,38.574,0
1540168719.084,25.391,29.785,30.273,20.996,41.992,0
1540168719.088,32.715,26.367,33.691,28.320,39.062,0
1540168719.092,28.809,27.344,32.715,31.738,-5.859,0
1540168719.096,25.879,30.762,28.320,25.391,-6.348,0
1540168719.100,28.809,30.273,30.273,23.438,0.977,0
1540168719.104,28.320,30.273,35.156,27.344,25.879,0
1540168719.108,27.832,30.273,36.621,32.227,43.945,0
1540168719.112,23.926,28.809,32.227,27.344,6.836,0
1540168719.116,26.367,29.297,29.785,20.508,-18.066,0
1540168719.120,32.227,28.320,33.203,25.879,4.883,0
1540168719.123,24.414,23.926,32.715,22.461,16.113,0
1540168719.127,17.578,25.391,34.180,19.531,29.785,0
1540168719.131,23.926,20.508,37.109,25.879,35.645,0
1540168719.135,27.344,19.531,35.645,31.250,32.227,0
1540168719.139,30.762,23.438,35.645,32.715,96.680,0
1540168719.143,33.203,22.461,32.715,32.227,92.773,0
1540168719.147,27.344,27.344,28.809,19.043,16.602,0
1540168719.151,23.438,29.785,27.344,13.672,28.809,0
1540168719.155,24.902,24.902,23.438,21.973,78.125,0
1540168719.159,23.926,30.762,27.344,21.973,37.598,0
1540168719.163,21.484,22.949,27.832,19.043,-11.719,0
1540168719.166,22.461,18.066,26.367,21.484,37.109,0
1540168719.170,30.273,31.738,32.715,25.391,88.379,0
1540168719.174,26.367,32.227,35.645,24.414,76.660,0
1540168719.178,20.508,32.715,33.203,13.184,-31.250,0
1540168719.182,24.902,32.715,34.668,15.137,4.395,0
1540168719.186,22.949,33.203,37.598,24.902,12.207,0
1540168719.190,19.043,27.832,36.621,20.020,50.293,0
1540168719.194,13.184,20.996,35.645,17.578,47.852,0
1540168719.198,17.090,25.391,32.227,18.066,-26.855,0
1540168719.202,28.809,26.367,32.227,23.926,11.719,0
1540168719.205,31.250,23.926,34.668,30.273,28.809,0
1540168719.209,21.973,28.320,34.668,26.367,16.602,0
1540168719.213,17.578,33.203,32.227,17.090,19.531,0
1540168719.217,22.461,31.250,33.691,20.020,18.066,0
1540168719.221,23.438,27.832,35.645,27.832,42.969,0
1540168719.225,19.531,25.879,31.738,26.855,41.504,0
1540168719.229,18.066,24.414,30.762,27.832,-13.672,0
1540168719.233,21.484,24.902,34.180,26.367,25.391,0
1540168719.237,31.250,26.367,33.691,28.809,63.477,0
1540168719.241,30.273,29.297,35.156,29.785,58.594,0
1540168719.245,24.414,36.133,36.133,24.902,10.254,0
1540168719.248,21.484,35.645,30.762,21.484,34.668,0
1540168719.252,25.391,34.668,32.715,26.855,73.730,0
1540168719.256,28.809,33.691,35.156,34.180,21.973,0
1540168719.260,24.902,32.715,30.762,28.809,27.832,0
1540168719.264,30.762,36.621,32.715,31.738,42.969,0
1540168719.268,33.203,37.598,35.156,31.250,72.754,0
1540168719.272,27.344,33.203,36.133,20.996,82.520,0
1540168719.276,20.020,28.320,36.133,17.578,28.320,0
1540168719.280,20.996,31.250,36.133,14.160,29.297,0
1540168719.284,25.391,33.203,32.715,13.184,21.973,0
1540168719.288,23.438,27.832,28.809,14.648,-0.488,0
1540168719.291,20.996,33.203,33.203,14.160,38.086,0
1540168719.295,27.344,39.551,32.227,11.230,34.668,0
1540168719.299,37.109,41.504,31.738,11.719,5.859,0
1540168719.303,43.945,35.645,35.645,18.555,37.598,0
1540168719.307,48.340,25.391,36.621,22.949,38.086,0
1540168719.311,47.363,30.273,36.621,20.996,9.766,0
1540168719.315,48.828,38.086,36.621,18.555,24.414,0
1540168719.319,44.434,38.574,34.180,19.531,4.395,0
1540168719.323,36.133,34.180,33.691,25.391,-14.648,0
1540168719.327,30.273,33.691,37.109,30.273,50.781,0
1540168719.330,28.809,37.598,36.621,32.227,45.410,0
1540168719.334,31.250,37.109,35.645,33.203,48.828,0
1540168719.338,36.133,37.109,35.645,38.086,67.871,0
1540168719.342,31.738,39.551,36.621,38.086,41.504,0
1540168719.346,28.320,38.574,36.133,34.180,34.180,0
1540168719.350,29.785,36.133,34.180,32.227,41.016,1
1540168719.354,31.738,36.133,32.715,33.691,57.617,0
1540168719.358,29.785,33.203,31.738,33.203,21.973,0
1540168719.362,22.461,30.273,33.203,27.344,-44.434,0
1540168719.366,22.949,30.762,37.598,21.973,-21.973,0
1540168719.370,24.902,29.297,40.039,22.949,-12.207,0
1540168719.373,28.320,29.785,38.086,27.344,14.648,0
1540168719.377,25.391,28.320,36.621,23.438,62.500,0
1540168719.381,20.508,21.484,34.668,20.508,64.941,0
1540168719.385,19.531,18.066,27.832,24.902,102.539,0
1540168719.389,22.949,18.066,29.785,26.367,124.023,0
1540168719.393,19.531,31.250,34.180,22.949,36.621,0
1540168719.397,22.949,35.645,31.738,19.531,19.531,0
1540168719.401,34.668,29.785,35.156,24.902,80.566,0
1540168719.405,30.762,29.297,34.668,31.250,32.227,0
1540168719.409,24.902,29.785,28.809,32.227,21.973,0
1540168719.413,22.461,34.180,29.785,31.250,40.527,0
1540168719.416,23.926,32.715,29.297,27.832,-30.762,0
1540168719.420,28.320,25.391,28.809,27.344,4.395,0
1540168719.424,29.297,26.367,33.691,28.809,20.508,0
1540168719.428,28.809,26.367,34.668,21.973,-29.785,0
1540168719.432,29.785,18.555,30.762,17.090,40.527,0
1540168719.436,28.809,19.043,29.785,13.184,7.812,0
1540168719.440,25.391,25.879,28.320,14.648,-19.531,0
1540168719.444,20.508,27.832,24.414,19.531,20.508,0
1540168719.448,17.090,26.855,29.297,20.020,26.855,0
1540168719.452,13.672,24.902,34.668,14.160,64.941,0
1540168719.455,20.020,22.949,34.668,12.207,34.180,0
1540168719.459,27.344,26.855,36.133,25.391,-20.508,0
1540168719.463,23.438,27.832,29.785,1.953,31.250,0
1540168719.467,22.949,27.832,27.832,6.836,64.941,0
1540168719.471,32.227,27.344,34.668,39.551,30.762,0
1540168719.475,29.297,26.855,36.133,34.180,-2.930,0
1540168719.479,25.391,21.973,34.180,31.738,35.156,0
1540168719.483,34.180,22.461,29.785,34.668,47.363,0
1540168719.487,40.527,30.273,29.785,34.668,7.324,0
1540168719.491,41.992,27.344,31.738,42.480,34.668,0
1540168719.495,34.668,20.020,29.297,34.180,49.316,0
1540168719.498,31.738,29.297,31.250,22.461,19.043,0
1540168719.502,37.109,37.598,35.156,30.273,4.883,0
1540168719.506,33.203,30.273,35.645,31.738,36.133,0
1540168719.510,33.203,26.855,33.203,26.855,33.203,0
1540168719.514,35.156,37.598,27.344,29.297,19.531,0
1540168719.518,32.227,40.527,28.809,19.043,43.457,0
1540168719.522,34.180,36.133,33.691,23.438,37.109,0
1540168719.526,36.133,32.715,33.691,30.762,20.020,0
1540168719.530,36.621,31.250,36.621,31.250,37.598,0
1540168719.534,32.227,35.156,39.062,36.621,25.391,0
1540168719.538,35.156,34.180,36.621,27.832,17.090,0
1540168719.541,42.969,31.738,29.785,24.414,45.410,0
1540168719.545,36.133,27.344,32.715,29.297,43.945,0
1540168719.549,27.832,24.414,38.086,31.738,12.695,0
1540168719.553,31.250,31.738,32.227,33.203,35.156,0
1540168719.557,29.297,35.156,30.762,27.832,105.469,0
1540168719.561,16.602,33.203,32.227,13.184,32.715,0
1540168719.565,19.531,36.621,27.344,19.531,4.883,0
1540168719.569,40.527,38.086,26.367,39.551,33.691,0
1540168719.573,45.898,36.621,35.645,38.086,40.039,0
1540168719.577,44.922,34.180,39.062,39.062,58.594,0
1540168719.580,43.457,29.785,32.715,41.992,104.980,0
1540168719.584,21.484,27.344,35.156,36.621,84.473,0
1540168719.588,27.832,28.809,37.109,36.621,-3.418,0
1540168719.592,39.062,28.320,32.227,34.180,-22.461,0
1540168719.596,28.809,27.832,29.785,28.320,53.223,0
1540168719.600,28.320,29.297,26.855,35.156,69.336,0
1540168719.604,24.902,28.320,29.785,40.527,52.734,0
1540168719.608,14.648,26.367,34.668,38.574,80.566,0
1540168719.612,13.184,24.414,33.203,35.645,16.113,0
1540168719.616,14.160,22.461,32.227,31.250,32.227,0
1540168719.620,14.648,19.531,30.762,31.250,99.609,0
1540168719.623,7.324,20.508,29.785,32.715,85.449,0
1540168719.627,7.324,21.973,24.902,34.180,72.266,0
1540168719.631,11.230,19.043,24.902,28.320,37.109,0
1540168719.635,13.672,18.066,29.785,23.438,-7.324,0
1540168719.639,18.066,19.043,30.762,28.320,-1.953,0
1540168719.643,8.789,24.414,34.668,22.949,64.453,0
1540168719.647,5.371,30.762,35.156,20.508,44.434,0
1540168719.651,7.812,33.691,34.180,27.344,47.363,0
1540168719.655,20.508,29.785,34.180,31.738,33.203,0
1540168719.659,15.137,27.344,34.668,32.227,-23.438,0
1540168719.663,15.625,27.344,35.645,22.461,-20.508,0
1540168719.666,23.926,29.297,33.203,22.461,9.766,0
1540168719.670,13.672,30.762,30.273,28.809,29.297,0
1540168719.674,4.395,27.832,29.785,23.438,-24.902,0
1540168719.678,15.625,28.320,29.785,24.414,-0.488,0
1540168719.682,17.090,27.832,32.227,15.137,34.180,0
1540168719.686,17.090,22.461,33.691,20.508,48.340,0
1540168719.690,19.043,19.043,30.762,34.180,44.434,0
1540168719.694,13.184,21.973,24.902,19.043,19.531,0
1540168719.698,20.508,25.879,27.344,21.484,-9.277,0
1540168719.702,20.996,28.809,32.227,30.273,35.156,0
1540168719.705,18.066,28.809,34.668,20.996,58.594,0
1540168719.709,16.113,29.297,32.227,20.996,-1.465,0
1540168719.713,19.531,30.273,32.715,17.578,-68.848,0
1540168719.717,20.996,33.203,33.203,19.531,-41.504,0
1540168719.721,20.508,37.598,31.738,27.344,35.645,0
1540168719.725,20.508,35.156,30.762,26.367,56.641,0
1540168719.729,15.625,36.621,33.203,24.902,119.141,0
1540168719.733,18.066,39.062,35.645,23.438,104.980,0
1540168719.737,22.949,33.691,35.645,22.949,25.879,0
1540168719.741,18.555,35.645,36.133,22.461,27.832,0
1540168719.745,19.043,36.621,36.133,23.926,28.320,0
1540168719.748,16.113,34.668,31.738,19.531,7.324,0
1540168719.752,16.602,33.691,29.297,18.555,26.855,0
1540168719.756,17.578,33.691,28.320,26.855,38.086,0
1540168719.760,10.254,34.180,30.273,24.414,26.367,0
1540168719.764,15.625,31.738,31.250,21.484,8.301,0
1540168719.768,15.137,32.227,27.832,24.902,-14.648,0
1540168719.772,16.602,31.250,28.320,29.297,-30.273,0
1540168719.776,19.531,35.156,31.738,29.785,-16.602,0
1540168719.780,12.695,35.645,32.715,19.531,42.969,0
1540168719.784,13.672,25.879,27.832,19.043,33.203,0
1540168719.788,21.973,27.344,26.367,28.320,18.066,0
1540168719.791,19.531,30.273,32.715,21.484,-9.766,0
1540168719.795,13.672,30.762,33.203,12.695,-25.391,0
1540168719.799,16.113,32.227,34.668,16.113,37.109,0
1540168719.803,19.043,28.320,36.133,22.461,44.922,0
1540168719.807,17.090,23.926,32.715,26.367,41.016,0
1540168719.811,20.508,27.832,36.133,21.973,36.621,0
1540168719.815,24.902,28.320,37.109,20.020,-11.230,0
1540168719.819,27.832,28.809,35.156,34.668,24.414,0
1540168719.823,30.762,30.762,34.668,30.762,49.316,0
1540168719.827,29.297,31.738,32.227,24.902,46.387,0
1540168719.830,35.156,32.227,31.738,30.273,29.297,0
1540168719.834,32.715,21.484,31.738,32.715,-9.766,0
1540168719.838,32.227,27.344,34.180,34.668,38.574,0
1540168719.842,34.668,38.086,35.156,30.762,1.953,0
1540168719.846,27.832,35.156,26.855,22.461,-37.109,0
1540168719.850,27.832,36.133,23.926,22.461,1.953,0
1540168719.854,31.738,37.109,30.762,32.227,32.227,0
1540168719.858,29.785,33.691,34.668,34.668,21.973,0
1540168719.862,29.297,30.762,37.109,29.785,-17.578,0
1540168719.866,28.320,33.203,33.691,21.484,5.859,0
1540168719.870,30.762,35.645,31.738,21.973,79.590,0
1540168719.873,22.949,30.762,39.551,24.902,72.754,0
1540168719.877,15.625,30.762,41.016,24.902,46.875,0
1540168719.881,20.508,34.668,30.762,18.066,51.758,0
1540168719.885,21.484,30.273,27.832,18.555,36.133,0
1540168719.889,19.043,21.973,26.855,18.066,61.523,0
1540168719.893,17.090,21.973,29.785,12.695,75.195,0
1540168719.897,16.113,29.785,36.133,18.555,25.391,0
1540168719.901,15.625,30.273,36.621,16.602,16.602,0
1540168719.905,17.090,27.832,33.691,16.113,61.523,0
1540168719.909,13.184,34.668,31.738,19.043,41.016,0
1540168719.913,10.742,37.109,35.645,5.371,22.461,0
1540168719.916,10.254,27.344,37.109,-0.488,89.355,0
1540168719.920,11.230,16.602,40.039,16.602,40.527,0
1540168719.924,10.254,24.902,40.039,20.020,-22.461,0
1540168719.928,7.324,35.156,36.621,17.090,-7.324,0
1540168719.932,8.789,34.180,36.621,15.625,-1.465,0
1540168719.936,20.508,33.203,36.621,19.531,9.277,0
1540168719.940,29.785,34.668,29.785,25.879,19.531,0
1540168719.944,27.832,37.109,31.250,24.902,57.617,0
1540168719.948,29.785,31.250,34.668,23.438,51.270,0
1540168719.952,26.855,23.926,37.109,21.973,33.203,0
1540168719.955,24.414,28.809,37.109,15.625,74.707,0
1540168719.959,21.484,33.203,33.203,19.043,68.848,0
1540168719.963,15.137,33.691,36.621,16.113,30.273,0
1540168719.967,18.555,33.203,40.527,14.648,-20.996,0
1540168719.971,23.438,27.344,40.527,16.113,-3.906,0
1540168719.975,16.602,23.926,35.156,11.230,36.133,0
1540168719.979,22.949,24.414,33.203,9.277,53.223,0
1540168719.983,25.391,27.344,33.203,12.207,36.133,0
1540168719.987,18.555,32.715,32.227,19.531,41.504,0
1540168719.991,20.508,27.344,34.668,12.695,19.043,0
1540168719.995,23.926,22.461,35.156,13.184,8.301,0
1540168719.998,27.832,28.809,33.691,18.066,63.477,0
1540168720.002,25.879,35.645,36.621,14.648,20.508,0
1540168720.006,28.320,40.527,36.621,16.113,0.000,0
1540168720.010,26.855,38.086,28.320,17.578,16.602,0
1540168720.014,26.367,35.645,30.273,15.625,33.691,0
1540168720.018,28.320,34.180,38.574,10.254,24.414,0
1540168720.022,30.762,30.273,37.598,13.184,-6.348,1
1540168720.026,22.461,31.250,33.691,19.043,65.430,0
1540168720.030,15.625,27.344,37.109,17.578,29.785,0
1540168720.034,19.043,23.926,38.086,14.648,-6.348,0
1540168720.038,24.414,27.344,35.156,16.113,40.039,0
1540168720.041,29.297,24.414,34.668,22.949,65.918,0
1540168720.045,21.973,20.020,37.109,21.973,35.645,0
1540168720.049,18.066,28.320,38.086,14.160,18.555,0
1540168720.053,26.367,25.879,37.109,20.996,15.137,0
1540168720.057,24.414,17.090,40.527,24.414,0.977,0
1540168720.061,20.020,22.949,35.645,21.973,52.734,0
1540168720.065,20.508,28.809,26.855,17.578,56.152,0
1540168720.069,21.973,30.762,22.949,14.648,-49.805,0
1540168720.073,26.855,26.367,26.855,20.020,-51.270,0
1540168720.077,21.973,25.391,35.645,22.949,37.109,0
1540168720.080,17.578,25.879,38.086,20.508,82.031,0
1540168720.084,19.043,25.391,36.621,14.648,33.203,0
1540168720.088,18.555,25.879,34.180,13.672,-4.883,0
1540168720.092,18.066,26.855,34.668,15.137,31.738,0
1540168720.096,15.625,29.297,32.227,18.066,30.762,0
1540168720.100,11.719,29.785,32.227,18.555,49.316,0
1540168720.104,16.602,29.297,36.133,25.879,35.156,0
1540168720.108,20.508,25.391,34.180,29.785,25.879,0
1540168720.112,10.254,24.414,34.668,17.090,49.805,0
1540168720.116,4.883,24.414,31.250,11.230,89.355,0
1540168720.120,6.836,24.902,30.273,13.672,73.730,0
1540168720.123,6.348,28.320,36.621,12.695,17.090,0
1540168720.127,10.254,30.762,32.227,17.090,11.230,0
1540168720.131,15.625,33.203,31.250,10.254,-1.465,0
1540168720.135,22.949,27.344,34.668,14.648,33.203,0
1540168720.139,27.344,18.066,30.273,29.297,59.570,0
1540168720.143,16.602,24.902,27.344,21.484,32.227,0
1540168720.147,12.207,30.273,26.367,17.578,19.043,0
1540168720.151,10.742,23.438,28.809,17.090,19.531,0
1540168720.155,14.648,22.949,30.273,14.648,36.133,0
1540168720.159,24.414,23.438,35.156,6.348,71.777,0
1540168720.163,29.297,21.484,32.715,3.906,33.691,0
1540168720.166,34.668,16.113,22.949,2.441,17.578,0
1540168720.170,34.180,11.230,27.832,-0.488,40.527,0
1540168720.174,32.715,18.555,31.738,-3.418,70.312,0
1540168720.178,28.809,23.926,29.297,-7.812,49.316,0
1540168720.182,28.320,22.949,28.320,-4.395,-43.945,0
1540168720.186,31.250,23.438,35.156,3.906,-4.883,0
1540168720.190,20.020,21.973,29.297,11.719,37.598,0
1540168720.194,11.230,17.578,20.508,14.160,17.090,0
1540168720.198,7.324,13.184,30.273,15.137,3.418,0
1540168720.202,10.742,17.090,35.156,14.160,-1.953,0
1540168720.205,15.625,16.113,32.715,14.648,54.199,0
1540168720.209,13.672,12.207,29.785,20.020,62.988,0
1540168720.213,13.672,18.555,30.273,8.301,39.551,0
1540168720.217,16.602,24.414,37.598,10.742,39.062,0
1540168720.221,20.508,23.926,41.992,20.996,16.113,0
1540168720.225,20.508,19.531,43.457,22.461,36.621,0
1540168720.229,21.484,12.695,38.574,24.414,37.109,0
1540168720.233,22.461,14.648,28.809,24.414,21.484,0
1540168720.237,24.414,28.320,34.180,34.668,55.176,0
1540168720.241,23.926,30.273,39.551,35.156,54.199,0
1540168720.245,20.508,28.809,37.598,17.578,-7.812,0
1540168720.248,23.438,32.227,33.691,12.207,-31.738,0
1540168720.252,26.367,26.367,29.785,20.020,-6.348,0
1540168720.256,29.297,23.926,30.762,23.926,27.344,0
1540168720.260,29.297,24.414,33.691,22.949,40.039,0
1540168720.264,29.297,26.367,36.133,23.926,11.230,0
1540168720.268,32.715,27.344,30.762,28.809,22.949,0
1540168720.272,40.039,21.973,33.691,33.203,29.785,0
1540168720.276,41.504,23.438,33.691,34.180,0.977,0
1540168720.280,39.551,32.715,31.738,29.297,21.973,0
1540168720.284,34.668,32.715,32.715,28.809,29.785,0
1540168720.288,33.203,31.738,31.250,34.180,50.781,0
1540168720.291,28.320,31.738,29.297,38.086,91.797,0
1540168720.295,32.715,26.367,26.367,36.133,21.484,0
1540168720.299,37.598,24.902,29.785,35.156,17.578,0
1540168720.303,31.738,24.902,32.227,36.133,67.383,0
1540168720.307,34.180,25.879,30.273,31.738,71.289,0
1540168720.311,34.180,31.738,30.762,25.391,22.949,0
1540168720.315,30.273,34.668,36.621,24.902,-15.625,0
1540168720.319,27.344,35.645,37.109,27.832,64.941,0
1540168720.323,28.809,30.762,29.297,25.879,61.523,0
1540168720.327,28.809,26.855,30.273,20.508,6.836,0
1540168720.330,29.785,20.508,31.738,22.949,5.371,0
1540168720.334,36.133,21.973,33.203,35.156,-32.227,0
1540168720.338,39.551,30.273,39.062,39.551,-36.133,0
1540168720.342,34.668,24.902,39.551,32.715,-20.508,0
1540168720.346,32.227,23.926,34.668,27.832,55.176,0
1540168720.350,33.203,27.832,36.621,28.809,81.055,0
1540168720.354,36.133,31.250,38.086,28.809,50.781,0
1540168720.358,40.527,32.227,38.574,32.227,19.043,0
1540168720.362,36.621,31.250,39.551,28.320,-6.348,0
1540168720.366,36.133,30.762,33.691,24.414,11.230,0
1540168720.370,39.062,27.344,33.203,28.320,-12.207,0
1540168720.373,41.992,26.367,31.738,30.273,-40.039,0
1540168720.377,39.551,27.832,32.715,20.996,-20.508,0
1540168720.381,30.273,28.320,36.621,15.625,-27.344,0
1540168720.385,31.738,27.832,34.668,15.625,26.367,0
1540168720.389,43.457,16.602,35.645,22.461,97.656,0
1540168720.393,46.875,7.812,33.691,32.715,9.277,0
1540168720.397,44.922,26.367,20.020,27.832,-32.715,0
1540168720.401,41.016,38.574,21.484,28.809,32.715,0
1540168720.405,40.527,36.133,35.156,35.645,66.895,0
1540168720.409,38.086,36.133,32.227,29.297,39.551,0
1540168720.413,30.762,37.598,30.273,23.438,31.250,0
1540168720.416,25.879,32.715,34.668,20.996,21.973,0
1540168720.420,28.809,25.391,27.344,20.996,-54.199,0
1540168720.424,30.273,27.344,26.367,23.926,8.301,0
1540168720.428,26.367,32.715,32.715,20.508,52.734,0
1540168720.432,27.832,28.809,32.715,20.020,-8.789,0
1540168720.436,32.715,22.949,34.668,21.484,-27.832,0
1540168720.440,33.203,29.297,25.879,21.484,-42.480,0
1540168720.444,28.809,31.250,22.461,29.297,27.832,0
1540168720.448,24.414,32.715,34.668,22.949,32.715,0
1540168720.452,25.391,33.691,34.180,22.461,-18.555,0
1540168720.455,30.762,33.691,30.762,26.367,3.906,0
1540168720.459,29.297,34.180,33.203,23.438,58.105,0
1540168720.463,26.367,35.156,32.715,26.367,74.707,0
1540168720.467,33.203,34.180,24.414,32.715,80.566,0
1540168720.471,34.668,28.320,24.414,36.133,63.965,0
1540168720.475,21.973,26.367,33.691,24.902,32.715,0
1540168720.479,10.742,31.738,31.250,9.277,94.238,0
1540168720.483,11.719,31.738,29.785,10.742,109.375,0
1540168720.487,18.066,28.809,39.062,20.996,37.109,0
1540168720.491,12.207,25.879,38.086,15.137,6.836,0
1540168720.495,4.883,25.879,29.785,11.230,17.578,0
1540168720.498,7.324,25.879,33.691,9.277,7.812,0
1540168720.502,7.812,18.066,37.598,9.277,34.668,0
1540168720.506,2.930,22.461,32.715,11.230,92.773,0
1540168720.510,4.395,31.250,30.273,2.441,56.641,0
1540168720.514,8.789,30.762,35.156,-1.465,57.129,0
1540168720.518,2.930,31.250,29.785,6.348,57.617,0
1540168720.522,8.301,30.273,21.973,13.184,32.227,0
1540168720.526,13.672,29.785,30.273,13.184,34.180,0
1540168720.530,15.625,31.250,32.227,9.277,36.621,0
1540168720.534,18.066,27.832,25.391,7.812,69.336,0
1540168720.538,17.578,27.832,24.902,14.648,72.754,0
1540168720.541,18.555,32.227,26.367,17.578,15.137,0
1540168720.545,20.508,36.133,30.762,19.043,28.320,0
1540168720.549,21.973,34.668,32.715,22.461,60.059,0
1540168720.553,23.926,26.855,33.691,26.367,-23.926,0
1540168720.557,26.855,29.785,30.762,29.785,23.926,0
1540168720.561,25.391,32.227,24.902,26.855,39.062,0
1540168720.565,28.809,35.156,24.414,20.508,16.113,0
1540168720.569,32.715,37.109,23.438,21.484,35.645,0
1540168720.573,32.227,37.109,22.461,29.297,35.156,0
1540168720.577,28.809,38.574,27.832,32.227,33.203,0
1540168720.580,23.438,37.109,31.738,24.902,2.441,0
1540168720.584,22.461,38.574,26.367,20.996,-10.254,0
1540168720.588,27.344,34.668,25.391,27.832,-23.926,0
1540168720.592,25.879,32.227,30.762,32.715,31.250,0
1540168720.596,26.367,35.645,36.621,33.203,58.105,0
1540168720.600,30.762,37.598,35.645,34.668,22.949,0
1540168720.604,31.738,28.320,31.250,35.156,12.695,0
1540168720.608,29.297,26.367,34.180,38.086,30.762,0
1540168720.612,24.902,38.086,31.250,32.227,47.363,0
1540168720.616,28.809,36.621,26.855,30.273,25.391,0
1540168720.620,40.039,30.762,21.973,37.598,22.949,0
1540168720.623,38.574,37.598,22.461,34.180,51.270,1
1540168720.627,31.738,36.621,32.715,28.809,16.113,0
1540168720.631,35.645,30.762,40.039,29.785,-3.906,0
1540168720.635,32.715,34.180,40.527,34.180,54.688,0
1540168720.639,33.691,32.227,39.551,37.598,60.059,0
1540168720.643,36.621,23.926,43.457,40.039,25.879,0
1540168720.647,32.227,14.160,36.133,35.645,48.340,0
1540168720.651,26.367,25.391,33.203,22.461,73.730,0
1540168720.655,26.367,40.527,33.203,23.438,17.578,0
1540168720.659,20.996,34.180,27.344,30.762,-2.930,0
1540168720.663,13.672,32.715,25.391,24.414,-8.789,0
1540168720.666,18.066,34.668,28.809,18.555,-4.395,0
1540168720.670,22.461,38.574,35.156,25.879,32.715,0
1540168720.674,25.879,28.809,42.480,32.715,41.992,0
1540168720.678,24.414,14.648,43.457,27.832,26.855,0
1540168720.682,22.949,23.926,30.762,23.438,94.238,0
1540168720.686,24.414,34.180,25.391,27.832,75.195,0
1540168720.690,27.832,34.668,28.320,31.738,36.621,0
1540168720.694,26.855,36.133,29.297,27.832,47.852,0
1540168720.698,28.809,34.180,34.180,27.832,-1.953,0
1540168720.702,25.879,32.227,38.086,27.344,-22.461,0
1540168720.705,24.902,31.738,30.762,30.762,-44.922,0
1540168720.709,24.902,28.320,23.926,34.668,-20.996,0
1540168720.713,18.555,22.949,27.832,23.438,64.453,0
1540168720.717,16.602,25.879,22.949,12.695,51.270,0
1540168720.721,23.926,23.926,23.926,19.043,26.855,0
1540168720.725,24.414,30.273,30.762,24.902,51.758,0
1540168720.729,25.879,34.668,30.762,20.508,18.066,0
1540168720.733,23.926,28.809,23.438,22.949,0.977,0
1540168720.737,31.250,26.855,22.949,35.156,22.461,0
1540168720.741,31.738,31.250,30.762,28.809,58.105,0
1540168720.745,22.461,31.738,33.203,20.996,63.965,0
1540168720.748,28.320,23.926,32.227,26.367,52.246,0
1540168720.752,29.297,26.367,30.762,28.320,59.570,0
1540168720.756,26.855,30.762,30.273,23.438,76.660,0
1540168720.760,22.461,22.461,32.227,20.020,-2.441,0
1540168720.764,16.113,18.555,23.438,17.090,-40.039,0
1540168720.768,20.020,6.836,23.438,19.531,56.152,0
1540168720.772,26.367,6.348,36.133,26.367,73.242,0
1540168720.776,16.602,20.996,35.645,21.484,2.930,0
1540168720.780,13.184,22.949,29.785,15.625,-20.020,0
1540168720.784,14.648,24.414,31.738,20.020,22.949,0
1540168720.788,17.090,27.344,31.250,27.344,32.227,0
1540168720.791,20.020,29.297,27.344,30.273,41.504,0
1540168720.795,18.555,23.438,31.738,27.832,50.781,0
1540168720.799,20.996,21.484,33.691,23.438,25.879,0
1540168720.803,23.438,16.113,30.762,27.832,22.949,0
1540168720.807,20.508,17.578,31.738,24.414,8.301,0
1540168720.811,17.578,21.973,30.762,21.484,15.625,0
1540168720.815,24.414,23.438,25.879,21.973,13.672,0
1540168720.819,27.344,16.602,23.438,22.461,7.812,0
1540168720.823,30.762,9.766,26.855,26.855,10.742,0
1540168720.827,29.785,21.973,26.367,25.391,50.293,0
1540168720.830,25.879,32.227,24.902,18.555,85.938,0
1540168720.834,25.391,37.109,24.902,19.531,41.992,0
1540168720.838,27.344,35.156,17.578,20.996,14.160,0
1540168720.842,20.508,31.250,14.648,20.020,27.344,0
1540168720.846,19.531,33.203,24.902,18.066,24.414,0
1540168720.850,28.809,31.250,24.414,22.949,32.715,0
1540168720.854,29.297,30.273,24.414,24.414,23.438,0
1540168720.858,28.809,29.785,30.762,21.973,14.160,0
1540168720.862,20.996,25.879,32.227,21.484,30.273,0
1540168720.866,18.555,25.391,33.203,19.531,47.852,0
1540168720.870,25.391,20.508,26.855,28.320,52.246,0
1540168720.873,29.297,16.113,23.438,41.016,70.801,0
1540168720.877,30.762,23.926,26.855,39.551,20.508,0
1540168720.881,25.879,30.273,25.391,30.273,6.348,0
1540168720.885,22.949,31.738,25.391,27.344,14.648,0
1540168720.889,37.598,34.180,27.832,36.621,-0.488,0
1540168720.893,38.086,41.992,20.020,42.969,53.223,0
1540168720.897,27.832,39.551,19.531,31.250,45.410,0
1540168720.901,32.715,33.691,28.809,41.504,35.156,0
1540168720.905,34.668,33.203,26.855,41.504,42.969,0
1540168720.909,31.250,30.273,25.879,25.879,37.109,0
1540168720.913,24.902,28.320,30.762,26.855,47.363,0
1540168720.916,24.902,36.621,37.109,27.832,35.156,0
1540168720.920,28.809,42.480,40.527,27.344,34.180,0
1540168720.924,28.809,35.156,33.691,20.996,-6.348,0
1540168720.928,29.785,32.227,28.320,17.578,58.594,0
1540168720.932,32.715,37.598,29.297,22.461,104.004,0
1540168720.936,36.133,40.527,33.203,29.785,26.367,0
1540168720.940,44.922,35.645,34.180,30.762,-19.043,0
1540168720.944,41.016,29.785,30.273,26.367,8.789,0
1540168720.948,33.691,31.250,27.344,21.973,45.898,0
1540168720.952,36.621,35.156,25.391,20.020,83.008,0
1540168720.955,32.227,38.086,25.879,19.043,81.055,0
1540168720.959,28.809,37.598,28.320,19.043,40.039,0
1540168720.963,30.762,30.762,31.250,20.020,55.664,0
1540168720.967,26.367,32.227,31.738,24.414,83.984,0
1540168720.971,28.320,32.227,29.297,31.738,45.410,0
1540168720.975,33.203,29.297,30.273,32.227,33.203,0
1540168720.979,24.414,41.016,29.785,20.508,9.277,0
1540168720.983,17.578,43.945,26.855,9.766,10.742,0
1540168720.987,18.555,39.551,25.391,11.719,41.504,0
1540168720.991,19.531,38.574,29.785,21.484,24.414,0
1540168720.995,18.066,36.621,32.227,26.367,48.828,0
1540168720.998,20.020,33.203,22.949,19.043,39.551,0
1540168721.002,22.461,29.297,26.855,19.043,30.762,0
1540168721.006,24.902,30.762,32.227,28.809,51.758,0
1540168721.010,18.066,29.297,26.367,29.297,-39.062,0
1540168721.014,19.531,31.738,29.297,28.320,-1.465,0
1540168721.018,29.785,31.738,26.855,30.762,43.945,0
1540168721.022,26.855,25.879,21.973,35.645,21.973,0
1540168721.026,20.996,25.391,30.273,32.227,26.367,0
1540168721.030,20.996,28.320,34.180,26.367,36.133,0
1540168721.034,19.043,32.715,32.715,29.297,86.426,0
1540168721.038,22.949,31.738,31.250,34.180,58.594,0
1540168721.041,23.438,26.855,29.785,33.203,43.457,0
1540168721.045,23.438,26.367,26.855,32.715,24.414,0
1540168721.049,30.762,29.785,26.367,27.344,0.977,0
1540168721.053,31.250,28.809,29.297,25.391,38.086,0
1540168721.057,38.086,30.273,28.809,28.320,7.812,0
1540168721.061,45.898,32.227,26.855,21.484,-13.184,0
1540168721.065,47.363,33.203,25.391,15.137,62.500,0
1540168721.069,47.852,30.273,24.414,15.625,52.734,0
1540168721.073,53.223,26.367,26.367,14.648,0.000,0
1540168721.077,51.758,31.738,29.297,16.602,79.102,0
1540168721.080,45.410,33.203,21.484,20.020,90.332,0
1540168721.084,40.527,33.691,14.160,19.531,62.988,0
1540168721.088,35.645,35.645,21.484,31.738,59.082,0
1540168721.092,31.250,31.738,27.832,42.969,104.492,0
1540168721.096,27.344,29.297,28.320,41.992,90.332,0
1540168721.100,33.691,27.344,27.344,38.086,24.414,0
1540168721.104,37.598,27.344,22.949,33.691,-11.719,0
1540168721.108,32.715,29.297,20.020,35.156,35.156,0
1540168721.112,24.902,25.391,21.484,32.715,49.316,0
1540168721.116,18.066,19.043,25.391,21.973,7.812,0
1540168721.120,16.113,17.578,26.367,22.461,30.273,0
1540168721.123,14.648,26.367,22.461,28.809,30.762,0
1540168721.127,5.371,29.297,20.996,25.879,9.277,0
1540168721.131,3.418,28.320,19.531,21.973,14.648,0
1540168721.135,12.695,29.297,24.414,25.879,-0.488,0
1540168721.139,16.602,22.461,32.227,27.832,47.852,0
1540168721.143,6.836,18.555,35.156,21.973,128.418,0
1540168721.147,13.672,20.996,35.645,28.320,76.660,0
1540168721.151,23.926,22.949,31.250,33.203,4.395,0
1540168721.155,23.926,22.461,29.297,35.645,-13.672,0
1540168721.159,20.996,20.996,35.645,32.715,7.324,0
1540168721.163,19.531,21.484,37.598,24.902,-15.137,0
1540168721.166,23.438,24.902,33.691,25.879,-14.160,0
1540168721.170,27.832,26.367,27.832,35.645,-24.414,0
1540168721.174,28.320,11.719,27.832,39.062,9.766,0
1540168721.178,30.273,15.137,33.691,30.762,69.824,0
1540168721.182,31.738,34.668,32.715,23.438,31.738,0
1540168721.186,31.738,33.691,26.367,27.344,18.555,0
1540168721.190,33.691,35.645,25.391,26.367,5.371,0
1540168721.194,30.273,38.574,25.391,22.461,-31.250,0
1540168721.198,31.250,38.574,32.227,25.879,-75.195,0
1540168721.202,38.574,28.809,35.156,28.809,-36.133,0
1540168721.205,43.457,23.438,32.227,31.738,89.355,0
1540168721.209,37.598,35.156,27.344,29.785,83.496,0
1540168721.213,32.715,37.109,20.020,20.996,4.395,0
1540168721.217,37.598,37.109,23.438,26.855,9.277,0
1540168721.221,34.668,30.762,26.855,33.691,31.250,0
1540168721.225,30.273,21.973,29.785,25.879,43.457,0
1540168721.229,34.180,28.320,35.156,22.949,41.016,0
1540168721.233,42.480,33.691,33.203,27.832,22.949,0
1540168721.237,46.387,33.203,28.809,33.203,-32.715,1
1540168721.241,44.922,35.645,27.832,28.320,-15.625,0
1540168721.245,40.039,42.969,29.297,23.438,10.254,0
1540168721.248,41.016,41.016,31.250,28.809,-7.324,0
1540168721.252,38.574,34.668,28.809,33.691,41.016,0
1540168721.256,38.086,35.156,28.809,33.691,33.203,0
1540168721.260,40.527,35.645,25.879,35.645,33.203,0
1540168721.264,38.574,31.738,26.855,32.715,-1.465,0
1540168721.268,42.480,30.273,27.344,27.344,-21.484,0
1540168721.272,43.457,37.109,23.926,32.715,53.223,0
1540168721.276,31.738,41.504,24.902,27.832,44.922,0
1540168721.280,29.297,43.457,27.344,18.555,21.973,0
1540168721.284,32.715,39.551,24.414,20.020,36.133,0
1540168721.288,31.250,33.691,21.484,24.414,20.020,0
1540168721.291,35.156,26.855,27.832,25.391,78.125,0
1540168721.295,33.203,27.344,32.715,19.531,88.379,0
1540168721.299,28.320,34.668,30.762,14.648,68.848,0
1540168721.303,34.668,34.180,26.855,17.578,44.434,0
1540168721.307,37.109,30.762,31.738,25.391,27.832,0
1540168721.311,36.133,27.344,33.203,26.367,50.781,0
1540168721.315,41.016,23.926,32.227,25.391,38.086,0
1540168721.319,35.156,24.902,30.762,24.414,39.551,0
1540168721.323,31.250,24.902,27.832,23.438,46.387,0
1540168721.327,33.691,29.785,30.762,26.855,68.359,0
1540168721.330,29.297,34.668,33.691,22.461,67.383,0
1540168721.334,26.367,33.203,35.645,23.438,16.113,0
1540168721.338,26.367,35.156,35.645,29.297,22.949,0
1540168721.342,20.020,28.809,36.621,29.785,27.832,0
1540168721.346,17.578,26.367,27.344,21.973,-4.395,0
1540168721.350,19.531,31.738,21.973,16.113,76.660,0
1540168721.354,22.949,33.203,33.203,25.879,101.562,0
1540168721.358,22.461,28.320,34.180,29.785,61.035,0
1540168721.362,12.695,26.367,31.738,24.414,-17.578,0
1540168721.366,11.719,28.320,33.203,23.926,-23.926,0
1540168721.370,25.391,29.297,31.738,30.273,10.742,0
1540168721.373,34.668,25.879,31.738,29.297,10.742,0
1540168721.377,33.203,23.926,29.785,28.320,58.105,0
1540168721.381,23.926,33.203,31.250,29.785,92.285,0
1540168721.385,20.020,39.062,31.738,34.668,20.508,0
1540168721.389,27.832,32.715,33.203,41.992,-25.391,0
1540168721.393,28.320,32.227,34.668,32.227,45.410,0
1540168721.397,27.344,33.691,27.832,25.391,41.504,0
1540168721.401,33.691,30.762,24.414,30.273,-20.508,0
1540168721.405,31.250,33.203,22.461,32.227,2.441,0
1540168721.409,25.391,33.203,27.344,29.297,36.133,0
1540168721.413,23.438,31.250,39.551,29.785,6.348,0
1540168721.416,33.691,28.320,37.598,29.785,16.113,0
1540168721.420,38.574,23.438,26.855,35.156,3.418,0
1540168721.424,30.762,25.879,26.855,42.969,-54.688,0
1540168721.428,34.180,29.785,35.156,40.527,-30.762,0
1540168721.432,40.039,32.227,35.645,36.133,49.316,0
1540168721.436,35.156,35.156,29.297,27.344,98.633,0
1540168721.440,25.391,39.551,24.902,22.461,102.051,0
1540168721.444,19.531,37.109,23.438,21.973,96.191,0
1540168721.448,22.949,34.668,21.484,18.066,83.008,0
1540168721.452,25.391,34.668,23.438,27.832,66.895,0
1540168721.455,29.297,31.250,24.902,36.133,57.129,0
1540168721.459,31.738,30.762,25.391,30.273,100.098,0
1540168721.463,27.344,27.344,29.785,23.438,133.789,0
1540168721.467,30.762,26.855,27.344,19.531,63.477,0
1540168721.471,32.715,25.391,29.785,31.250,6.348,0
1540168721.475,29.785,23.926,31.250,36.133,26.855,0
1540168721.479,26.855,21.973,29.297,31.250,11.719,0
1540168721.483,25.879,25.391,31.250,25.391,-7.324,0
1540168721.487,28.809,34.180,35.645,24.902,3.418,0
1540168721.491,27.344,38.086,33.203,26.367,-17.578,0
1540168721.495,24.902,28.320,28.320,28.809,-4.395,0
1540168721.498,31.250,29.297,31.738,34.180,5.859,0
1540168721.502,40.527,38.086,32.227,30.762,-20.020,0
1540168721.506,41.992,35.645,27.832,28.320,-5.859,0
1540168721.510,34.668,32.715,29.297,37.598,15.137,0
1540168721.514,22.949,23.926,27.832,29.785,-22.949,0
1540168721.518,18.555,27.344,20.020,27.832,9.277,0
1540168721.522,29.297,28.809,18.555,35.156,53.711,0
1540168721.526,27.832,24.414,26.367,24.902,64.941,0
1540168721.530,22.461,33.691,29.785,20.020,45.410,0
1540168721.534,25.879,23.926,33.691,18.066,54.688,0
1540168721.538,29.297,12.207,22.461,14.648,76.660,0
1540168721.541,32.227,24.902,18.555,31.250,75.195,0
1540168721.545,29.785,33.203,33.203,33.691,28.809,0
1540168721.549,23.926,31.250,31.738,18.555,13.184,0
1540168721.553,25.879,28.320,28.320,25.391,70.312,0
1540168721.557,25.879,24.902,25.391,35.156,20.020,0
1540168721.561,21.484,23.438,25.391,29.785,30.762,0
1540168721.565,21.484,30.762,26.367,24.902,51.758,0
1540168721.569,20.508,33.691,27.832,28.320,-20.020,0
1540168721.573,26.367,31.738,34.668,35.156,-28.809,0
1540168721.577,24.902,33.691,31.250,29.785,3.418,0
1540168721.580,20.020,34.180,28.320,26.367,56.152,0
1540168721.584,25.879,38.574,33.691,30.762,109.863,0
1540168721.588,32.227,34.668,31.738,34.180,74.219,0
1540168721.592,25.879,23.438,31.250,37.109,16.602,0
1540168721.596,21.484,30.762,33.691,31.250,16.113,0
1540168721.600,31.738,41.992,28.320,30.273,3.906,0
1540168721.604,38.574,41.016,27.344,39.062,9.277,0
1540168721.608,34.668,37.598,24.414,38.086,25.879,0
1540168721.612,25.391,33.203,27.832,26.367,24.414,0
1540168721.616,22.949,30.273,30.273,20.508,43.457,0
1540168721.620,18.555,25.391,28.320,24.902,15.625,0
1540168721.623,21.484,23.438,30.273,26.367,-10.254,0
1540168721.627,22.461,25.391,27.832,21.973,3.418,0
1540168721.631,19.531,26.855,23.438,18.555,21.973,0
1540168721.635,26.855,31.250,21.973,19.043,24.414,0
1540168721.639,28.320,32.227,28.809,20.996,43.945,0
1540168721.643,21.973,27.344,36.621,20.020,31.250,0
1540168721.647,27.344,24.902,38.574,15.137,-34.180,0
1540168721.651,21.484,23.926,38.086,12.207,-1.465,0
1540168721.655,14.648,20.020,38.574,11.230,36.133,0
1540168721.659,19.043,18.066,42.480,16.113,-7.812,0
1540168721.663,19.043,20.508,39.551,15.625,33.691,0
1540168721.666,10.254,23.438,30.762,7.324,17.090,0
1540168721.670,6.836,21.484,28.809,4.883,-20.508,0
1540168721.674,18.066,21.973,32.227,10.254,54.199,0
1540168721.678,21.973,26.855,34.668,13.672,25.391,0
1540168721.682,12.695,22.461,34.668,9.766,-14.648,0
1540168721.686,10.254,16.602,28.809,3.418,-35.156,0
1540168721.690,16.113,19.043,26.855,6.836,-9.277,0
1540168721.694,17.090,20.996,31.738,14.648,52.246,0
1540168721.698,13.672,21.973,33.203,11.719,20.508,0
1540168721.702,12.695,21.484,30.762,9.277,8.789,0
1540168721.705,14.648,21.484,26.855,13.184,9.277,0
1540168721.709,20.508,24.902,31.738,23.926,53.223,0
1540168721.713,24.902,21.973,34.668,22.461,90.820,0
1540168721.717,20.508,17.578,26.367,14.160,48.828,0
1540168721.721,21.484,18.555,27.832,20.508,39.062,0
1540168721.725,17.578,18.555,29.297,21.484,-8.789,0
1540168721.729,13.184,18.555,28.320,15.137,-2.441,0
1540168721.733,18.066,22.949,32.715,21.973,12.207,0
1540168721.737,22.461,23.438,31.250,29.297,21.973,0
1540168721.741,26.855,23.438,28.320,28.809,78.613,0
1540168721.745,27.832,22.461,26.367,24.414,83.496,0
1540168721.748,32.227,20.020,26.855,20.996,73.242,0
1540168721.752,35.156,22.461,27.832,27.344,-2.930,0
1540168721.756,38.574,26.367,33.203,37.109,-23.438,0
1540168721.760,40.039,25.879,35.645,43.945,38.086,0
1540168721.764,30.762,18.066,30.762,34.668,47.852,0
1540168721.768,25.391,17.578,32.227,30.762,38.086,0
1540168721.772,31.738,18.555,45.410,41.016,34.668,0
1540168721.776,31.250,17.578,39.062,43.457,58.105,0
1540168721.780,24.902,19.531,25.391,40.527,64.941,0
1540168721.784,28.320,20.020,33.691,39.551,26.855,0
1540168721.788,36.133,20.508,34.180,42.969,11.230,0
1540168721.791,30.273,26.367,31.250,37.109,17.578,0
1540168721.795,30.273,33.203,35.645,29.297,39.062,0
1540168721.799,34.668,37.598,36.133,30.273,56.152,0
1540168721.803,30.273,36.621,35.645,31.250,75.684,0
1540168721.807,32.715,37.109,34.180,32.715,36.621,0
1540168721.811,31.250,36.621,32.227,25.391,5.859,0
1540168721.815,27.832,32.715,31.738,16.602,-17.578,0
1540168721.819,22.949,31.250,25.391,15.137,-16.113,0
1540168721.823,24.414,33.691,21.973,12.207,53.711,0
1540168721.827,27.344,34.180,23.926,11.230,27.344,0
1540168721.830,14.160,30.762,22.461,5.371,37.598,0
1540168721.834,11.230,31.250,28.320,7.812,54.688,0
1540168721.838,24.414,30.762,30.273,9.277,36.133,0
1540168721.842,23.438,27.832,28.320,9.766,11.719,0
1540168721.846,15.137,26.855,30.762,15.137,-10.742,0
1540168721.850,14.648,26.367,33.691,13.672,-32.227,0
1540168721.854,25.391,28.809,32.227,16.602,1.953,0
1540168721.858,22.461,31.250,26.367,15.625,-36.621,0
1540168721.862,8.301,31.250,22.949,8.789,-38.574,1
1540168721.866,8.789,32.715,22.949,2.930,34.180,0
1540168721.870,6.836,31.250,22.949,0.000,-18.555,0
1540168721.873,11.719,30.273,22.461,11.230,-51.270,0
1540168721.877,11.230,34.668,23.926,14.160,-11.719,0
1540168721.881,0.977,36.133,24.902,-2.441,45.898,0
1540168721.885,0.488,34.180,23.438,-2.930,95.703,0
1540168721.889,10.742,36.133,23.438,9.277,88.379,0
1540168721.893,7.812,41.016,25.391,7.324,59.082,0
1540168721.897,-2.930,42.480,23.438,-9.766,43.457,0
1540168721.901,-3.418,41.504,20.020,-16.602,-1.953,0
1540168721.905,0.488,41.992,24.902,-13.184,-5.371,0
1540168721.909,-6.836,43.457,28.809,-15.137,37.598,0
1540168721.913,-13.672,41.016,28.809,-16.602,30.273,0
1540168721.916,-11.230,42.480,29.785,-16.113,41.504,0
1540168721.920,-10.254,46.875,29.785,-22.461,71.289,0
1540168721.924,-5.859,44.922,30.273,-20.508,38.086,0
1540168721.928,-13.184,46.387,25.391,-23.438,15.137,0
1540168721.932,-20.020,48.828,21.484,-30.273,66.406,0
1540168721.936,-19.043,50.293,23.926,-23.926,59.082,0
1540168721.940,-12.207,50.293,25.879,-22.949,52.246,0
1540168721.944,-12.207,49.805,27.832,-27.344,64.453,0
1540168721.948,-22.461,48.340,28.320,-27.344,40.039,0
1540168721.952,-25.391,47.363,25.391,-20.020,8.301,0
1540168721.955,-19.531,49.316,23.926,-20.996,-8.301,0
1540168721.959,-19.531,51.270,24.414,-20.996,22.949,0
1540168721.963,-19.043,50.781,25.391,-17.090,54.688,0
1540168721.967,-11.719,49.316,25.391,-16.602,62.500,0
1540168721.971,-10.254,48.340,26.367,-11.719,10.742,0
1540168721.975,-11.719,45.410,19.531,-15.137,-8.301,0
1540168721.979,-6.836,46.875,20.996,-13.672,32.715,0
1540168721.983,7.324,45.898,34.180,-4.395,-48.340,0
1540168721.987,18.066,41.992,34.668,-2.930,-19.531,0
1540168721.991,23.438,39.551,26.855,-6.836,10.742,0
1540168721.995,20.508,38.574,23.438,-8.789,-15.137,0
1540168721.998,15.625,39.551,25.391,-6.836,33.203,0
1540168722.002,15.137,36.133,26.855,-9.766,50.293,0
1540168722.006,20.020,32.715,24.902,-6.836,39.551,0
1540168722.010,16.602,30.762,28.320,4.883,-7.812,0
1540168722.014,8.301,27.344,28.809,5.859,-43.457,0
1540168722.018,6.348,24.902,26.855,9.277,-26.855,0
1540168722.022,2.930,26.855,29.297,11.719,-9.766,0
1540168722.026,3.906,24.414,29.785,16.113,9.766,0
1540168722.030,12.695,22.461,29.785,22.461,-2.930,0
1540168722.034,11.719,24.414,33.203,17.090,12.207,0
1540168722.038,15.137,24.902,40.039,23.438,43.457,0
1540168722.041,27.344,27.344,39.551,31.738,15.625,0
1540168722.045,23.926,28.320,33.691,25.391,36.621,0
1540168722.049,25.391,30.273,32.227,36.133,74.707,0
1540168722.053,34.668,29.785,34.180,48.340,-14.160,0
1540168722.057,38.574,29.297,34.668,51.270,-26.855,0
1540168722.061,35.156,28.320,35.156,48.828,45.898,0
1540168722.065,33.691,27.344,38.086,46.875,22.461,0
1540168722.069,36.621,28.320,40.039,55.664,30.762,0
1540168722.073,43.457,25.879,38.086,58.105,48.340,0
1540168722.077,43.945,23.926,38.574,53.223,42.969,0
1540168722.080,41.992,22.949,40.527,49.805,34.668,0
1540168722.084,48.828,24.902,37.598,54.199,11.230,0
1540168722.088,55.664,25.879,40.527,62.500,42.480,0
1540168722.092,55.176,27.344,45.898,61.035,44.434,0
1540168722.096,51.270,29.785,39.062,54.199,25.879,0
1540168722.100,55.176,29.785,32.227,57.617,39.551,0
1540168722.104,65.430,26.367,35.645,66.406,27.344,0
1540168722.108,62.500,26.855,40.039,66.406,32.715,0
1540168722.112,59.570,29.297,41.016,62.988,44.922,0
1540168722.116,66.895,29.785,40.527,61.035,49.805,0
1540168722.120,70.312,28.809,41.016,57.617,17.090,0
1540168722.123,71.777,26.855,39.551,60.547,-10.742,0
1540168722.127,64.941,28.320,32.715,61.523,7.324,0
1540168722.131,56.641,28.809,32.227,51.758,15.625,0
1540168722.135,62.012,27.832,34.668,53.223,-16.602,0
1540168722.139,64.453,23.926,31.250,58.594,3.906,0
1540168722.143,56.152,24.414,28.809,56.641,44.434,0
1540168722.147,55.176,26.855,30.273,49.805,0.000,0
1540168722.151,57.129,26.367,33.691,52.734,20.508,0
1540168722.155,64.941,26.367,35.156,57.617,38.574,0
1540168722.159,72.754,28.320,32.715,59.082,27.344,0
1540168722.163,63.965,30.762,30.762,57.617,35.645,0
1540168722.166,57.617,29.785,32.715,46.875,-0.977,0
1540168722.170,59.570,27.344,36.621,49.805,-9.766,0
1540168722.174,57.129,25.879,36.133,53.223,48.340,0
1540168722.178,60.547,28.320,32.715,50.293,64.941,0
1540168722.182,62.012,27.832,29.785,46.875,49.316,0
1540168722.186,63.477,25.391,28.809,46.875,33.691,0
1540168722.190,69.824,26.855,29.785,49.805,45.410,0
1540168722.194,64.941,30.273,27.344,44.434,50.781,0
1540168722.198,61.035,33.203,25.391,42.480,49.805,0
1540168722.202,60.059,35.156,26.367,47.852,57.129,0
1540168722.205,59.082,32.715,24.414,54.199,79.102,0
1540168722.209,51.758,28.320,22.949,51.758,59.570,0
1540168722.213,50.781,27.832,26.855,39.062,65.430,0
1540168722.217,53.223,27.344,29.297,40.039,125.488,0
1540168722.221,51.270,24.414,28.320,41.992,47.852,0
1540168722.225,44.922,22.461,28.809,34.668,8.301,0
1540168722.229,37.109,25.391,29.297,32.715,40.039,0
1540168722.233,34.668,23.926,28.809,31.738,-3.906,0
1540168722.237,34.668,20.996,27.344,29.297,-64.453,0
1540168722.241,35.156,25.879,21.484,30.762,-24.414,0
1540168722.245,36.133,27.344,20.508,28.320,-9.766,0
1540168722.248,32.227,23.438,25.879,27.344,13.672,0
1540168722.252,35.645,26.855,26.855,32.715,65.430,0
1540168722.256,46.387,28.320,32.715,37.109,66.895,0
1540168722.260,51.758,28.320,36.621,36.621,95.703,0
1540168722.264,48.828,31.738,33.691,35.645,42.969,0
1540168722.268,46.387,31.250,35.645,42.480,28.809,0
1540168722.272,56.641,29.785,31.738,42.480,66.406,0
1540168722.276,52.246,30.762,28.320,39.551,11.230,0
1540168722.280,43.945,32.227,38.086,40.039,-22.461,0
1540168722.284,46.387,33.691,37.109,38.574,20.020,0
1540168722.288,39.551,29.297,32.227,36.133,49.316,0
1540168722.291,37.109,29.297,34.180,33.203,70.312,0
1540168722.295,37.109,32.227,33.691,35.156,84.961,0
1540168722.299,32.715,32.227,34.180,35.645,31.250,0
1540168722.303,34.180,33.691,37.109,33.203,-24.414,0
1540168722.307,35.156,33.691,33.203,35.156,-16.602,0
1540168722.311,32.715,34.668,27.832,31.250,-3.418,0
1540168722.315,33.203,37.109,28.809,19.043,23.438,0
1540168722.319,32.715,34.180,32.715,35.156,17.090,0
1540168722.323,34.668,30.762,39.062,43.945,19.043,0
1540168722.327,31.250,32.227,38.086,34.180,41.016,0
1540168722.330,27.832,32.227,32.227,36.133,56.641,0
1540168722.334,24.414,27.832,33.203,35.156,28.809,0
1540168722.338,18.555,25.391,32.715,35.156,43.457,0
1540168722.342,22.461,30.762,35.156,41.016,63.965,0
1540168722.346,20.508,31.738,37.109,37.109,25.879,0
1540168722.350,18.555,30.762,34.180,26.367,35.645,0
1540168722.354,21.973,34.180,33.691,34.180,46.387,0
1540168722.358,20.996,34.668,34.180,36.621,4.883,0
1540168722.362,15.625,36.621,31.738,23.438,-21.484,0
1540168722.366,11.719,38.086,28.809,17.578,5.371,0
1540168722.370,24.414,37.598,27.344,28.320,34.668,0
1540168722.373,34.668,40.527,27.344,36.133,42.969,0
1540168722.377,28.809,39.062,30.273,30.273,-0.977,0
1540168722.381,25.879,35.645,26.855,29.785,-38.086,0
1540168722.385,26.367,32.715,18.066,28.809,57.129,0
1540168722.389,32.227,31.738,19.531,30.273,74.219,0
1540168722.393,29.297,29.785,24.902,37.598,20.508,0
1540168722.397,26.367,27.832,24.414,30.273,19.531,0
1540168722.401,30.762,34.180,27.344,33.203,21.484,0
1540168722.405,37.598,34.180,31.738,40.527,43.945,0
1540168722.409,40.039,32.715,30.273,41.992,33.691,0
1540168722.413,40.039,31.738,27.832,39.062,12.207,0
1540168722.416,45.898,31.250,29.785,39.551,-12.695,0
1540168722.420,46.387,34.180,32.227,38.574,9.766,0
1540168722.424,42.480,33.203,33.203,38.086,86.914,0
1540168722.428,38.086,29.297,35.645,37.598,88.867,0
1540168722.432,36.621,29.785,35.645,32.227,19.531,0
1540168722.436,37.109,28.809,33.691,37.109,6.348,0
1540168722.440,38.086,26.855,34.180,39.062,62.500,0
1540168722.444,31.250,27.344,27.832,33.691,62.012,0
1540168722.448,27.832,29.297,24.414,30.762,69.336,0
1540168722.452,35.156,33.203,27.832,32.715,68.848,0
1540168722.455,41.992,34.668,27.344,39.551,55.176,0
1540168722.459,40.039,34.668,29.297,42.480,23.438,0
1540168722.463,41.504,31.250,32.227,41.016,-10.742,0
1540168722.467,45.410,30.273,31.738,39.062,14.160,0
1540168722.471,41.504,28.809,33.203,40.527,55.664,0
1540168722.475,46.387,30.762,36.621,46.387,70.801,0
1540168722.479,49.805,32.227,32.715,40.039,51.270,0
1540168722.483,42.969,23.926,25.391,30.762,11.230,0
1540168722.487,42.480,28.320,24.414,35.156,10.254,0
1540168722.491,40.039,36.133,25.391,37.598,-3.418,0
1540168722.495,33.691,37.109,26.855,32.227,-13.672,0
1540168722.498,33.203,34.180,26.367,26.855,39.062,0
1540168722.502,35.645,33.691,28.320,31.250,70.312,0
1540168722.506,40.527,35.156,31.250,39.551,60.059,0
1540168722.510,33.691,34.180,29.297,39.062,27.344,0
1540168722.514,31.250,31.738,31.250,39.062,14.160,0
1540168722.518,37.598,30.273,32.715,44.922,2.441,0
1540168722.522,41.504,35.645,23.438,40.039,-10.254,0
1540168722.526,40.039,38.574,24.902,36.133,25.391,0
1540168722.530,37.109,37.109,36.621,31.738,15.625,0
1540168722.534,36.621,35.156,31.250,25.391,-5.371,0
1540168722.538,33.203,31.250,27.344,31.738,7.324,0
1540168722.541,32.227,34.180,30.762,34.668,24.414,0
1540168722.545,34.180,41.016,29.297,29.785,32.715,0
1540168722.549,31.250,40.039,27.344,31.250,13.184,0
1540168722.553,33.691,40.039,30.273,35.645,-4.883,0
1540168722.557,35.645,39.551,31.738,35.156,7.324,0
1540168722.561,25.879,37.598,25.879,29.785,-2.441,0
1540168722.565,23.926,40.039,25.879,24.902,-1.953,0
1540168722.569,31.250,36.621,33.203,30.273,46.875,0
1540168722.573,36.621,29.785,31.250,38.086,121.094,0
1540168722.577,31.738,30.273,24.414,36.621,133.789,1
1540168722.580,29.297,31.250,24.902,27.832,85.938,0
1540168722.584,33.203,30.273,31.250,28.320,70.312,0
1540168722.588,37.598,29.297,28.809,34.180,48.340,0
1540168722.592,33.691,33.691,28.809,31.738,58.594,0
1540168722.596,25.391,37.598,39.062,26.367,57.617,0
1540168722.600,28.809,32.715,42.969,28.320,28.320,0
1540168722.604,34.668,29.297,38.574,29.785,53.711,0
1540168722.608,34.668,22.461,35.645,33.203,32.715,0
1540168722.612,34.668,22.949,41.016,36.621,33.203,0
1540168722.616,36.621,30.273,43.457,29.785,57.129,0
1540168722.620,39.062,32.227,39.062,32.715,82.031,0
1540168722.623,40.039,34.180,37.109,36.621,108.398,0
1540168722.627,26.367,27.344,35.156,24.414,28.320,0
1540168722.631,27.832,25.391,31.738,26.855,-1.953,0
1540168722.635,36.133,29.297,28.320,37.598,-28.809,0
1540168722.639,34.668,27.832,25.391,30.762,24.902,0
1540168722.643,28.809,24.414,30.273,23.438,36.133,0
1540168722.647,21.484,24.414,30.762,18.066,-57.617,0
1540168722.651,21.484,25.879,31.250,21.484,-20.996,0
1540168722.655,20.996,25.391,36.621,28.320,5.371,0
1540168722.659,21.484,28.809,34.180,29.297,-7.324,0
1540168722.663,26.367,35.645,32.715,25.391,38.086,0
1540168722.666,28.809,37.598,33.203,26.855,7.812,0
1540168722.670,32.227,31.250,32.227,32.715,-11.230,0
1540168722.674,32.715,27.832,34.668,33.203,34.180,0
1540168722.678,28.809,30.762,32.227,39.551,11.230,0
1540168722.682,31.250,37.598,29.297,34.180,3.906,0
1540168722.686,28.320,41.016,36.621,30.273,0.977,0
1540168722.690,30.273,40.039,37.598,39.551,-14.648,0
1540168722.694,32.227,41.016,36.133,38.086,7.812,0
1540168722.698,32.715,36.621,37.109,33.691,-0.977,0
1540168722.702,37.109,34.180,33.203,36.621,-20.508,0
1540168722.705,39.062,38.574,29.297,40.527,23.926,0
1540168722.709,35.645,34.180,30.273,36.621,62.988,0
1540168722.713,32.715,26.367,30.762,33.203,63.965,0
1540168722.717,32.227,26.855,31.250,34.668,42.480,0
1540168722.721,32.715,27.832,31.250,37.598,47.852,0
1540168722.725,31.250,26.367,32.227,35.156,33.691,0
1540168722.729,26.855,31.738,23.438,29.297,18.066,0
1540168722.733,27.344,34.668,18.555,29.785,-29.297,0
1540168722.737,33.203,35.156,31.250,36.621,-22.461,0
1540168722.741,36.133,31.738,38.574,41.016,33.691,0
1540168722.745,31.250,29.297,31.250,38.086,27.832,0
1540168722.748,35.156,39.551,27.832,33.691,45.410,0
1540168722.752,36.133,43.945,30.273,30.273,34.668,0
1540168722.756,32.227,42.480,31.250,33.691,53.711,0
1540168722.760,28.320,41.504,32.227,38.086,55.176,0
1540168722.764,27.344,37.598,30.273,32.715,28.320,0
1540168722.768,25.391,31.738,26.367,29.297,72.754,0
1540168722.772,25.391,29.785,30.273,35.156,43.457,0
1540168722.776,22.461,33.203,29.297,32.715,20.508,0
1540168722.780,26.855,29.785,25.391,25.391,81.055,0
1540168722.784,31.738,33.691,28.809,24.902,61.035,0
1540168722.788,34.180,36.133,32.715,30.273,10.742,0
1540168722.791,36.621,36.133,29.297,27.832,41.992,0
1540168722.795,29.297,40.039,24.414,17.578,68.848,0
1540168722.799,30.273,39.551,30.273,17.578,53.711,0
1540168722.803,30.762,39.551,33.203,25.879,-3.418,0
1540168722.807,30.762,39.062,32.227,32.715,-0.977,0
1540168722.811,25.879,36.133,28.809,31.738,31.250,0
1540168722.815,23.926,36.621,26.855,30.273,52.734,0
1540168722.819,31.250,39.551,27.832,38.574,56.152,0
1540168722.823,37.598,34.180,28.320,40.527,18.555,0
1540168722.827,34.180,31.738,28.320,36.133,66.406,0
1540168722.830,27.344,34.180,29.785,32.715,11.719,0
1540168722.834,29.785,33.203,24.414,37.109,-27.832,0
1540168722.838,32.715,30.762,20.020,41.016,54.688,0
1540168722.842,26.855,29.297,25.879,41.016,26.855,0
1540168722.846,24.414,29.785,26.367,34.180,24.902,0
1540168722.850,28.320,32.227,18.555,31.250,20.996,0
1540168722.854,39.062,36.133,20.020,39.062,6.348,0
1540168722.858,45.410,34.668,28.809,39.551,0.000,0
1540168722.862,42.969,33.691,31.250,35.156,-35.645,0
1540168722.866,50.293,32.715,31.250,27.832,-32.227,0
1540168722.870,63.477,33.691,32.227,23.438,-3.418,0
1540168722.873,62.012,36.621,27.832,27.832,50.293,0
1540168722.877,49.316,37.598,29.297,28.320,16.602,0
1540168722.881,45.410,34.180,27.832,23.438,-21.484,0
1540168722.885,45.410,30.273,22.461,25.391,-4.883,0
1540168722.889,42.480,27.832,28.320,29.297,24.414,0
1540168722.893,28.809,25.879,33.691,30.273,35.156,0
1540168722.897,20.020,29.297,35.645,28.320,31.250,0
1540168722.901,21.484,30.273,34.668,26.855,50.781,0
1540168722.905,20.996,25.391,33.691,26.855,62.500,0
1540168722.909,19.531,24.414,33.691,29.785,50.781,0
1540168722.913,16.113,23.438,33.691,29.785,-14.648,0
1540168722.916,17.090,25.391,34.180,22.461,-22.949,0
1540168722.920,19.531,26.367,35.156,23.438,8.301,0
1540168722.924,18.555,25.879,33.691,19.531,49.316,0
1540168722.928,12.695,26.855,31.738,15.625,38.086,0
1540168722.932,13.672,24.414,33.203,17.090,20.508,0
1540168722.936,13.672,22.949,35.645,15.625,59.570,0
1540168722.940,10.254,22.461,36.621,20.020,46.387,0
1540168722.944,6.836,24.414,37.598,20.996,-12.207,0
1540168722.948,9.277,26.855,38.086,17.090,32.227,0
1540168722.952,15.625,24.902,35.156,16.602,73.730,0
1540168722.955,21.484,29.297,37.598,21.973,26.855,0
1540168722.959,18.066,31.738,37.598,20.996,28.320,0
1540168722.963,11.719,29.297,33.203,9.277,69.336,0
1540168722.967,17.578,29.297,34.180,12.207,0.977,0
1540168722.971,27.344,33.691,36.621,27.344,-44.434,0
1540168722.975,34.180,33.691,38.574,28.320,17.090,0
1540168722.979,36.133,34.180,35.156,24.902,16.602,0
1540168722.983,37.109,34.668,30.762,23.926,-20.996,0
1540168722.987,34.180,31.250,35.645,23.926,21.973,0
1540168722.991,34.668,32.715,37.598,25.391,66.895,0
1540168722.995,33.691,33.203,32.715,21.973,62.012,0
1540168722.998,36.133,32.227,35.156,28.320,30.273,0
1540168723.002,42.969,35.156,41.504,36.133,20.020,0
1540168723.006,50.293,35.645,40.039,35.645,20.508,0
1540168723.010,46.875,33.691,36.621,29.785,35.156,0
1540168723.014,41.504,33.203,37.598,29.297,43.945,0
1540168723.018,47.852,33.691,37.109,35.156,21.484,0
1540168723.022,44.434,33.203,35.645,37.109,35.156,0
1540168723.026,41.992,32.227,41.504,38.574,45.410,0
1540168723.030,41.504,29.785,43.945,37.109,-4.883,0
1540168723.034,40.039,29.785,42.480,39.062,7.324,0
1540168723.038,41.504,32.715,40.039,42.969,69.824,0
1540168723.041,40.039,36.621,40.039,41.992,72.754,0
1540168723.045,39.062,37.109,38.574,37.598,41.016,0
1540168723.049,40.039,35.645,37.109,30.273,49.316,0
1540168723.053,42.480,36.621,37.109,32.227,86.426,0
1540168723.057,43.457,34.180,39.551,38.574,31.738,0
1540168723.061,39.062,37.109,41.016,31.738,-0.977,0
1540168723.065,35.645,37.598,39.551,23.438,28.320,0
1540168723.069,36.621,35.645,38.086,23.926,77.148,0
1540168723.073,41.016,40.039,36.133,24.902,30.273,0
1540168723.077,34.668,38.086,33.691,19.531,-16.113,0
1540168723.080,30.762,33.691,30.762,11.719,51.758,0
1540168723.084,29.785,36.133,35.156,10.742,28.320,0
1540168723.088,27.832,35.156,30.762,10.254,17.578,0
1540168723.092,28.809,33.203,27.832,9.766,20.996,0
1540168723.096,21.973,36.133,33.203,6.836,-1.465,0
1540168723.100,24.414,34.180,33.691,4.395,31.738,0
1540168723.104,29.297,34.180,33.691,9.766,62.988,0
1540168723.108,24.902,36.133,33.203,15.625,24.414,0
1540168723.112,19.531,31.738,34.180,9.277,29.785,0
1540168723.116,23.438,33.691,35.645,10.254,3.906,0
1540168723.120,27.832,37.598,36.621,17.578,-28.809,0
1540168723.123,30.273,34.180,37.109,12.207,29.297,0
1540168723.127,26.855,33.203,34.668,13.672,83.984,0
1540168723.131,25.879,32.227,35.645,18.555,9.277,0
1540168723.135,29.297,32.227,39.062,21.973,-31.738,0
1540168723.139,32.227,31.250,36.133,29.785,31.738,0
1540168723.143,32.715,29.297,37.109,35.156,31.738,1
1540168723.147,27.344,30.762,34.668,27.344,66.895,0
1540168723.151,28.320,34.668,34.180,26.367,121.582,0
1540168723.155,36.621,34.668,44.922,37.109,73.730,0
1540168723.159,34.668,33.203,45.898,35.156,37.598,0
1540168723.163,29.785,34.668,44.434,35.645,34.180,0
1540168723.166,31.250,32.227,42.480,40.039,-18.555,0
1540168723.170,35.156,30.762,38.574,43.945,-5.371,0
1540168723.174,36.621,33.691,38.574,48.828,51.758,0
1540168723.178,43.457,37.109,38.086,49.805,10.742,0
1540168723.182,43.945,35.156,42.480,48.340,-4.883,0
1540168723.186,38.086,31.738,46.875,47.363,43.945,0
1540168723.190,41.992,30.762,46.387,50.781,25.391,0
1540168723.194,41.016,29.785,45.410,50.293,33.203,0
1540168723.198,34.180,31.250,42.480,39.551,32.715,0
1540168723.202,33.691,33.203,37.109,36.621,-26.367,0
1540168723.205,38.086,33.691,36.133,44.434,9.277,0
1540168723.209,33.203,32.715,39.062,40.527,30.273,0
1540168723.213,20.508,32.227,39.062,26.367,26.367,0
1540168723.217,15.625,34.668,35.645,25.879,54.199,0
1540168723.221,23.926,36.621,37.598,37.109,46.875,0
1540168723.225,29.297,35.645,40.039,39.062,6.836,0
1540168723.229,28.320,36.621,40.039,37.109,35.156,0
1540168723.233,30.762,38.574,39.551,36.621,16.113,0
1540168723.237,32.715,38.086,38.086,37.598,28.809,0
1540168723.241,33.691,36.621,31.738,40.039,57.617,0
1540168723.245,28.320,35.645,30.273,39.062,28.809,0
1540168723.248,25.391,35.645,37.109,32.715,42.480,0
1540168723.252,24.414,34.668,40.039,30.762,4.883,0
1540168723.256,27.832,32.227,40.527,35.645,-38.574,0
1540168723.260,24.902,32.715,38.086,31.250,-14.648,0
1540168723.264,20.996,33.203,37.109,26.855,3.418,0
1540168723.268,24.902,31.738,38.086,30.273,-12.695,0
1540168723.272,31.250,32.227,32.227,32.715,-2.441,0
1540168723.276,30.273,31.250,26.855,32.715,37.109,0
1540168723.280,23.926,29.297,30.762,29.785,41.504,0
1540168723.284,30.273,30.273,37.598,25.391,48.340,0
1540168723.288,38.086,29.785,38.086,31.738,21.484,0
1540168723.291,36.133,29.785,36.133,37.598,24.414,0
1540168723.295,31.738,34.180,37.109,30.762,44.434,0
1540168723.299,29.297,37.598,38.086,31.250,29.785,0
1540168723.303,28.320,37.598,39.062,33.691,48.828,0
1540168723.307,32.227,35.645,36.621,38.574,4.883,0
1540168723.311,33.691,34.180,36.133,41.016,-12.695,0
1540168723.315,26.367,32.227,34.668,35.156,41.016,0
1540168723.319,24.902,33.203,31.738,35.156,8.301,0
1540168723.323,35.156,36.133,33.691,36.133,17.578,0
1540168723.327,33.203,33.203,34.668,28.809,74.707,0
1540168723.330,29.785,33.203,36.133,22.949,86.914,0
1540168723.334,29.785,32.715,38.086,22.461,86.426,0
1540168723.338,31.250,31.738,38.086,28.809,76.660,0
1540168723.342,34.668,37.598,39.062,31.250,48.828,0
1540168723.346,35.156,39.062,38.574,32.227,26.367,0
1540168723.350,31.250,33.203,34.668,27.832,82.520,0
1540168723.354,33.691,34.668,34.668,31.250,69.336,0
1540168723.358,36.621,32.715,32.227,41.016,42.480,0
1540168723.362,30.273,27.832,30.273,36.133,52.734,0
1540168723.366,27.832,26.855,31.738,28.809,16.602,0
1540168723.370,26.367,29.297,35.156,35.645,36.133,0
1540168723.373,29.785,31.738,36.133,35.645,35.645,0
1540168723.377,27.832,29.785,32.715,30.762,11.230,0
1540168723.381,30.762,33.691,34.668,38.574,41.992,0
1540168723.385,34.180,34.668,34.668,41.992,64.453,0
1540168723.389,35.156,30.762,37.109,38.086,57.617,0
1540168723.393,36.621,30.762,36.133,30.762,37.109,0
1540168723.397,34.180,32.227,37.109,27.832,58.594,0
1540168723.401,32.715,32.715,38.086,30.273,32.227,0
1540168723.405,36.133,30.762,34.180,33.203,25.391,0
1540168723.409,35.645,30.273,38.086,35.156,46.875,0
1540168723.413,32.227,29.297,40.039,34.668,29.785,0
1540168723.416,34.668,27.344,38.086,31.250,8.789,0
1540168723.420,36.621,29.785,32.227,30.762,-3.906,0
1540168723.424,35.156,29.297,32.715,33.203,10.742,0
1540168723.428,29.297,25.879,39.062,28.320,39.551,0
1540168723.432,31.738,25.879,39.062,23.438,26.855,0
1540168723.436,31.250,26.367,40.039,27.344,25.879,0
1540168723.440,29.297,26.855,40.039,25.391,18.555,0
1540168723.444,29.785,28.809,40.039,20.996,0.977,0
1540168723.448,27.344,29.785,38.086,22.461,40.527,0
1540168723.452,25.879,30.273,37.109,24.902,67.871,0
1540168723.455,31.250,32.227,39.062,31.250,64.453,0
1540168723.459,30.762,32.227,37.109,38.086,71.777,0
1540168723.463,24.902,32.227,35.645,30.273,36.621,0
1540168723.467,24.902,30.273,35.156,27.832,40.039,0
1540168723.471,22.949,28.320,37.109,30.762,7.324,0
1540168723.475,21.973,29.785,41.016,30.762,8.789,0
1540168723.479,24.414,33.691,37.109,23.926,45.410,0
1540168723.483,22.949,35.156,37.109,15.137,33.691,0
1540168723.487,20.996,32.715,40.527,21.973,55.176,0
1540168723.491,20.020,32.715,36.133,25.391,69.824,0
1540168723.495,17.578,34.180,34.180,22.949,62.012,0
1540168723.498,16.113,36.133,35.156,16.602,41.992,0
1540168723.502,12.695,34.668,34.668,18.066,11.719,0
1540168723.506,16.113,32.715,32.715,27.344,5.859,0
1540168723.510,23.438,38.574,36.133,26.855,-13.672,0
1540168723.514,24.414,39.062,35.645,20.996,0.977,0
1540168723.518,19.531,31.738,26.855,19.531,0.977,0
1540168723.522,23.926,33.691,22.949,18.555,-12.207,0
1540168723.526,23.926,36.621,27.832,19.043,-32.715,0
1540168723.530,19.531,37.109,34.180,16.113,10.254,0
1540168723.534,22.461,37.109,30.273,13.672,35.645,0
1540168723.538,26.855,36.621,26.855,20.508,21.973,0
1540168723.541,27.832,35.645,33.203,27.344,32.715,0
1540168723.545,26.855,33.203,38.574,25.879,32.715,0
1540168723.549,27.832,31.250,38.574,26.367,9.277,0
1540168723.553,26.367,31.250,36.133,29.785,-1.465,0
1540168723.557,29.297,31.738,35.645,32.227,16.602,0
1540168723.561,26.855,31.250,33.691,34.668,26.855,0
1540168723.565,24.902,33.203,29.297,32.227,10.254,0
1540168723.569,27.832,33.203,34.668,37.598,52.246,0
1540168723.573,32.227,32.227,41.016,42.969,75.684,0
1540168723.577,32.227,36.133,37.598,39.062,52.246,0
1540168723.580,28.809,36.133,32.715,33.203,91.309,0
1540168723.584,29.297,36.621,31.738,29.785,88.867,0
1540168723.588,32.227,35.645,32.715,32.227,49.805,0
1540168723.592,36.621,33.691,31.738,39.062,14.160,0
1540168723.596,33.203,35.156,28.320,36.133,-96.680,0
1540168723.600,31.250,36.133,30.762,37.598,-65.918,0
1540168723.604,38.574,37.109,31.250,42.480,50.293,0
1540168723.608,40.527,37.109,34.180,37.598,54.688,0
1540168723.612,39.062,38.086,37.598,35.156,0.977,0
1540168723.616,38.086,39.551,38.086,31.738,18.555,0
1540168723.620,37.598,39.062,37.598,35.645,78.613,0
1540168723.623,36.621,37.109,32.227,35.156,74.707,0
1540168723.627,32.715,39.062,32.227,28.809,69.336,0
1540168723.631,34.180,42.480,38.574,28.320,53.223,0
1540168723.635,40.527,41.016,35.645,32.715,93.262,0
1540168723.639,41.016,39.062,32.715,38.086,106.934,0
1540168723.643,34.668,38.086,39.062,33.203,37.109,0
1540168723.647,32.227,36.621,36.133,31.250,16.113,0
1540168723.651,31.738,35.156,34.180,31.250,-11.719,0
1540168723.655,31.250,35.156,35.156,30.762,-49.316,0
1540168723.659,31.250,33.691,32.715,36.621,-5.371,0
1540168723.663,29.785,32.227,33.203,31.738,66.406,0
1540168723.666,26.367,36.133,33.691,31.738,75.684,0
1540168723.670,27.344,37.109,33.203,35.645,28.809,0
1540168723.674,30.273,36.133,36.133,36.621,20.508,0
1540168723.678,26.855,39.551,35.156,34.180,32.227,0
1540168723.682,25.879,40.527,36.133,28.320,28.809,0
1540168723.686,29.785,38.574,36.133,26.855,18.066,0
1540168723.690,39.551,41.504,30.273,31.250,18.555,0
1540168723.694,38.574,42.480,28.320,28.809,4.395,0
1540168723.698,28.809,38.086,29.297,20.508,6.836,0
1540168723.702,29.785,34.668,31.250,22.949,0.977,0
1540168723.705,37.109,35.645,29.785,30.273,62.988,0
1540168723.709,29.785,34.180,21.973,28.320,78.613,0
1540168723.713,20.996,29.785,20.020,19.043,23.926,0
1540168723.717,25.391,32.227,26.367,16.602,-6.836,0
1540168723.721,28.809,34.668,31.250,21.973,11.719,0
1540168723.725,30.273,34.180,31.738,25.391,22.461,0
1540168723.729,32.227,34.180,34.180,23.926,4.395,0
1540168723.733,37.109,37.598,31.738,20.996,73.730,0
1540168723.737,43.945,40.527,25.879,18.555,53.711,0
1540168723.741,45.898,40.039,26.855,14.160,-28.809,0
1540168723.745,46.875,39.062,27.832,11.230,-29.297,0
1540168723.748,48.340,40.039,26.367,11.719,-17.578,0
1540168723.752,46.875,38.574,29.785,16.602,-7.324,0
1540168723.756,46.875,34.180,28.320,21.484,-17.090,0
1540168723.760,33.691,30.762,27.344,18.555,3.906,1
1540168723.764,24.902,31.250,31.250,20.020,39.062,0
1540168723.768,29.785,29.297,30.762,32.715,31.738,0
1540168723.772,31.250,30.273,30.762,38.574,47.363,0
1540168723.776,27.832,30.762,29.785,31.250,31.738,0
1540168723.780,27.344,31.250,35.156,28.809,0.977,0
1540168723.784,28.809,33.203,34.180,28.320,27.832,0
1540168723.788,29.297,31.250,26.367,28.809,31.250,0
1540168723.791,31.250,28.320,31.738,32.715,52.246,0
1540168723.795,28.809,27.832,36.133,29.297,26.367,0
1540168723.799,27.832,28.320,34.668,30.762,-32.715,0
1540168723.803,26.855,28.809,33.203,33.203,-7.324,0
1540168723.807,29.785,28.320,32.227,33.203,29.297,0
1540168723.811,29.297,26.855,30.762,29.297,40.527,0
1540168723.815,23.926,25.879,27.344,18.066,-2.930,0
1540168723.819,24.902,26.367,24.414,20.020,20.996,0
1540168723.823,30.273,31.738,27.832,27.832,61.523,0
1540168723.827,22.949,32.715,33.203,21.973,47.363,0
1540168723.830,16.602,30.273,30.273,13.672,44.922,0
1540168723.834,21.973,32.227,27.344,14.648,43.457,0
1540168723.838,24.902,32.227,27.832,18.555,50.293,0
1540168723.842,22.461,28.320,23.438,14.160,18.066,0
1540168723.846,19.531,28.320,23.926,13.184,-4.395,0
1540168723.850,19.531,32.715,26.855,17.578,-4.395,0
1540168723.854,20.996,30.273,23.926,16.113,26.855,0
1540168723.858,15.625,27.344,25.391,13.184,36.133,0
1540168723.862,13.672,28.809,33.203,13.184,18.555,0
1540168723.866,14.160,26.855,35.645,13.672,-21.484,0
1540168723.870,17.578,31.738,34.180,18.555,45.410,0
1540168723.873,23.438,35.645,34.180,22.461,92.285,0
1540168723.877,20.020,30.762,31.250,25.879,-2.930,0
1540168723.881,24.414,30.273,28.320,25.391,44.922,0
1540168723.885,28.320,33.203,32.715,26.367,123.047,0
1540168723.889,27.344,29.785,30.273,24.902,106.934,0
1540168723.893,21.484,24.902,24.902,20.508,67.871,0
1540168723.897,15.137,23.926,30.762,16.602,5.371,0
1540168723.901,17.090,23.926,35.645,19.531,26.855,0
1540168723.905,25.879,26.367,34.668,29.785,85.449,0
1540168723.909,29.297,29.297,35.645,29.785,88.379,0
1540168723.913,23.438,30.762,31.738,24.414,99.121,0
1540168723.916,26.855,27.344,27.832,24.902,32.715,0
1540168723.920,34.668,25.391,25.879,29.297,8.789,0
1540168723.924,36.621,28.320,27.344,30.273,56.152,0
1540168723.928,37.598,29.297,31.738,25.391,20.508,0
1540168723.932,40.039,28.809,33.203,27.832,-14.160,0
1540168723.936,43.457,30.762,30.273,35.156,2.930,0
1540168723.940,50.781,29.785,26.855,40.527,-13.672,0
1540168723.944,47.852,30.273,27.344,35.645,13.184,0
1540168723.948,45.410,30.273,26.367,32.715,38.574,0
1540168723.952,46.875,26.855,24.414,32.715,31.250,0
1540168723.955,45.898,29.785,27.832,26.367,27.344,0
1540168723.959,39.062,30.273,32.715,29.785,62.988,0
1540168723.963,32.227,26.855,30.762,25.879,74.707,0
1540168723.967,33.691,27.832,29.785,19.531,22.461,0
1540168723.971,37.598,28.320,33.203,26.367,0.977,0
1540168723.975,35.156,27.344,30.762,28.809,9.766,0
1540168723.979,37.109,28.320,26.855,28.809,14.160,0
1540168723.983,41.992,27.832,28.809,29.785,70.801,0
1540168723.987,37.598,27.832,31.738,29.297,43.457,0
1540168723.991,36.621,28.809,33.203,30.273,2.930,0
1540168723.995,37.598,27.832,31.250,28.320,64.453,0
1540168723.998,34.668,29.297,28.809,21.973,49.316,0
1540168724.002,34.180,31.250,32.227,26.367,8.301,0
1540168724.006,40.527,32.715,33.203,38.574,47.852,0
1540168724.010,40.527,31.738,28.809,41.992,57.617,0
1540168724.014,39.551,32.715,23.926,36.621,2.441,0
1540168724.018,35.645,33.203,24.414,34.180,-7.324,0
1540168724.022,34.668,29.785,30.762,39.062,7.324,0
1540168724.026,35.645,30.762,33.691,38.574,-8.301,0
1540168724.030,35.156,30.762,33.203,29.297,28.809,0
1540168724.034,37.109,32.227,30.762,28.809,20.996,0
1540168724.038,36.621,35.156,30.762,33.691,29.297,0
1540168724.041,35.156,36.133,28.809,34.180,35.156,0
1540168724.045,37.109,37.598,25.391,33.203,21.973,0
1540168724.049,35.156,35.645,29.785,31.738,55.664,0
1540168724.053,35.156,35.156,29.297,32.227,46.387,0
1540168724.057,40.527,39.062,26.855,38.086,16.602,0
1540168724.061,33.203,36.621,28.320,41.016,-6.348,0
1540168724.065,30.762,32.227,29.297,35.645,-5.859,0
1540168724.069,30.762,33.691,28.320,31.738,-8.789,0
1540168724.073,30.762,34.668,30.762,34.668,50.293,0
1540168724.077,31.738,34.180,33.203,37.598,69.336,0
1540168724.080,25.879,33.203,28.320,31.250,67.871,0
1540168724.084,27.832,36.621,27.832,31.738,47.363,0
1540168724.088,36.621,38.574,29.785,40.039,0.000,0
1540168724.092,35.645,36.133,29.297,36.133,36.133,0
1540168724.096,30.762,32.227,31.738,33.691,68.359,0
1540168724.100,29.785,33.203,34.180,38.574,29.785,0
1540168724.104,31.738,31.738,27.832,34.180,11.719,0
1540168724.108,31.250,29.785,29.297,30.762,5.859,0
1540168724.112,27.344,30.273,28.809,30.273,-41.016,0
1540168724.116,23.438,28.320,26.367,28.809,-7.812,0
1540168724.120,23.438,31.738,25.879,32.227,63.477,0
1540168724.123,28.320,32.227,22.461,30.762,37.109,0
1540168724.127,27.832,34.180,18.555,29.785,-6.836,0
1540168724.131,22.949,37.109,22.949,22.949,-16.602,0
1540168724.135,19.531,35.645,30.762,22.949,4.395,0
1540168724.139,22.461,34.180,30.762,28.320,56.641,0
1540168724.143,20.020,28.809,28.320,25.879,48.340,0
1540168724.147,17.090,29.785,28.320,21.973,43.945,0
1540168724.151,20.508,37.109,27.344,24.414,77.148,0
1540168724.155,24.414,35.645,30.273,31.738,50.293,0
1540168724.159,21.484,28.809,34.668,34.668,9.766,0
1540168724.163,20.996,29.785,36.133,24.414,-10.254,0
1540168724.166,25.391,33.691,33.203,21.973,41.016,0
1540168724.170,23.926,33.203,24.902,28.320,81.055,0
1540168724.174,24.902,33.203,22.461,24.902,88.867,0
1540168724.178,19.531,33.203,30.273,19.531,79.102,0
1540168724.182,20.020,32.715,32.715,18.555,47.852,0
1540168724.186,24.414,31.738,32.227,22.949,33.203,0
1540168724.190,21.973,26.855,32.715,20.020,54.199,0
1540168724.194,18.066,23.926,34.180,17.090,68.848,0
1540168724.198,15.625,22.949,34.668,18.555,31.250,0
1540168724.202,16.602,24.414,29.297,23.438,-28.320,0
1540168724.205,19.043,24.902,30.762,26.855,20.020,0
1540168724.209,17.090,27.344,37.109,28.809,47.363,0
1540168724.213,17.578,28.320,34.668,24.902,25.391,0
1540168724.217,20.508,27.832,27.832,21.973,55.664,0
1540168724.221,23.926,31.250,31.738,28.320,70.801,0
1540168724.225,21.484,30.762,30.762,26.367,61.035,0
1540168724.229,15.137,26.855,23.926,22.461,22.949,0
1540168724.233,18.555,30.762,26.855,25.879,23.926,0
1540168724.237,17.578,31.738,32.227,29.297,33.691,0
1540168724.241,16.602,29.785,34.180,22.949,19.531,0
1540168724.245,17.090,30.273,34.668,18.555,29.297,0
1540168724.248,19.043,27.344,29.785,15.625,-32.715,0
1540168724.252,22.461,28.809,29.297,16.602,-74.219,0
1540168724.256,27.832,33.203,34.668,20.996,49.316,0
1540168724.260,24.902,34.180,29.785,21.484,53.711,0
1540168724.264,21.484,34.668,29.297,17.090,-16.113,0
1540168724.268,22.461,35.156,35.645,21.484,-7.812,0
1540168724.272,26.367,34.668,29.785,27.344,17.578,0
1540168724.276,28.809,35.156,25.391,21.484,89.355,0
1540168724.280,24.902,32.227,25.879,16.602,65.918,0
1540168724.284,22.949,29.297,27.344,17.578,4.883,0
1540168724.288,23.438,31.250,27.344,20.508,28.809,0
1540168724.291,24.414,32.227,25.879,23.438,28.809,0
1540168724.295,25.391,33.691,32.715,22.949,21.973,0
1540168724.299,22.461,34.180,33.203,17.090,7.812,0
1540168724.303,24.902,32.715,32.715,16.113,1.953,0
1540168724.307,33.203,30.762,34.668,26.855,54.688,0
1540168724.311,28.809,28.320,29.785,24.414,45.898,0
1540168724.315,25.879,31.250,31.250,22.949,2.441,0
1540168724.319,33.203,35.645,32.715,34.668,4.395,0
1540168724.323,40.039,34.180,30.762,37.109,16.602,0
1540168724.327,35.156,31.738,31.738,31.738,70.312,0
1540168724.330,28.320,30.273,30.273,24.902,102.539,0
1540168724.334,26.855,29.297,28.809,25.391,62.988,0
1540168724.338,31.250,31.250,28.320,30.273,12.695,0
1540168724.342,31.738,32.715,31.738,32.227,22.949,0
1540168724.346,28.809,32.715,31.738,26.855,75.195,0
1540168724.350,27.344,32.227,30.273,23.926,55.176,0
1540168724.354,28.809,32.227,32.715,25.879,-17.578,0
1540168724.358,36.133,36.133,32.715,29.297,10.742,0
1540168724.362,34.668,37.598,29.297,26.855,52.734,0
1540168724.366,29.297,34.668,29.785,23.926,-19.043,0
1540168724.370,31.738,29.785,30.762,26.367,-14.160,1
1540168724.373,34.668,31.250,33.203,33.203,9.766,0
1540168724.377,36.621,34.668,38.574,40.039,57.617,0
1540168724.381,40.527,31.250,39.062,36.133,112.793,0
1540168724.385,39.062,30.762,34.180,33.203,82.520,0
1540168724.389,42.969,32.715,35.645,39.062,18.066,0
1540168724.393,40.039,32.227,35.156,34.668,20.508,0
1540168724.397,32.715,34.180,30.762,25.391,58.105,0
1540168724.401,31.250,34.180,31.250,26.367,14.648,0
1540168724.405,28.320,29.297,32.227,27.344,29.785,0
1540168724.409,29.297,28.809,35.645,28.320,51.270,0
1540168724.413,28.809,29.785,36.133,25.391,1.953,0
1540168724.416,23.926,26.855,34.668,17.090,-41.992,0
1540168724.420,25.879,28.320,30.273,20.996,-13.184,0
1540168724.424,26.855,29.785,28.809,25.391,19.043,0
1540168724.428,23.438,29.785,31.738,27.832,50.781,0
1540168724.432,22.949,28.809,30.273,28.320,58.594,0
1540168724.436,28.320,30.273,32.227,25.879,17.578,0
1540168724.440,28.809,30.273,31.738,27.344,-5.371,0
1540168724.444,19.043,26.855,24.414,24.902,0.488,0
1540168724.448,20.020,27.344,29.297,20.508,20.020,0
1540168724.452,20.508,25.391,34.180,20.508,41.504,0
1540168724.455,18.555,28.320,30.273,26.367,21.973,0
1540168724.459,20.996,29.785,26.367,20.508,5.859,0
1540168724.463,17.578,24.902,24.902,7.812,58.105,0
1540168724.467,16.113,26.367,22.461,11.719,68.359,0
1540168724.471,21.484,28.809,20.020,18.555,29.297,0
1540168724.475,20.996,26.855,26.367,21.484,41.504,0
1540168724.479,20.996,25.391,30.273,22.949,23.438,0
1540168724.483,25.391,27.832,28.320,22.461,66.406,0
1540168724.487,27.344,27.344,29.785,24.414,40.039,0
1540168724.491,31.250,27.344,31.250,25.879,-22.949,0
1540168724.495,27.832,29.297,30.273,23.438,2.441,0
1540168724.498,30.273,31.250,30.762,25.879,7.324,0
1540168724.502,31.738,31.738,28.320,31.250,-8.301,0
1540168724.506,38.086,31.250,23.926,33.203,57.129,0
1540168724.510,38.086,29.297,21.484,35.156,39.062,0
1540168724.514,34.668,30.273,30.273,40.527,10.742,0
1540168724.518,39.062,33.203,39.062,40.039,39.551,0
1540168724.522,37.598,31.738,38.574,34.668,20.020,0
1540168724.526,33.691,33.203,38.086,34.180,26.367,0
1540168724.530,33.691,32.715,37.598,33.203,20.508,0
1540168724.534,34.668,32.715,38.086,34.180,55.176,0
1540168724.538,35.645,30.762,37.598,34.180,31.250,0
1540168724.541,36.133,26.367,36.621,35.156,19.531,0
1540168724.545,31.738,29.297,36.133,36.621,10.742,0
1540168724.549,30.762,31.738,30.762,30.762,-26.367,0
1540168724.553,36.133,30.762,34.668,31.738,-38.086,0
1540168724.557,37.598,31.738,37.598,31.738,-30.273,0
1540168724.561,36.133,30.273,35.156,26.367,79.590,0
1540168724.565,43.945,29.785,40.039,30.762,62.988,0
1540168724.569,42.969,32.227,40.039,35.645,-17.578,0
1540168724.573,35.156,32.227,33.203,31.250,22.949,0
1540168724.577,30.762,31.250,33.691,27.344,22.949,0
1540168724.580,35.156,33.203,34.180,31.738,22.949,0
1540168724.584,39.551,34.180,34.180,38.574,52.246,0
1540168724.588,38.574,32.715,38.574,38.574,66.895,0
1540168724.592,38.574,33.203,38.086,35.156,63.477,0
1540168724.596,36.133,32.227,37.109,35.156,29.785,0
1540168724.600,33.203,27.344,36.133,30.273,45.898,0
1540168724.604,38.086,29.297,33.691,34.180,80.078,0
1540168724.608,43.457,33.203,35.645,41.992,41.992,0
1540168724.612,41.992,35.156,38.086,34.668,31.738,0
1540168724.616,47.852,37.598,37.109,37.598,9.766,0
1540168724.620,59.570,38.086,35.645,39.062,11.719,0
1540168724.623,66.895,35.645,37.109,35.645,20.508,0
1540168724.627,62.012,36.133,38.574,37.598,-33.203,0
1540168724.631,57.129,37.598,33.691,31.738,-5.371,0
1540168724.635,57.617,39.551,34.668,34.668,55.176,0
1540168724.639,50.293,34.668,38.086,39.551,68.848,0
1540168724.643,35.156,28.809,33.691,41.016,47.363,0
1540168724.647,25.391,28.809,31.738,38.086,0.000,0
1540168724.651,21.484,26.855,31.250,33.691,-6.348,0
1540168724.655,25.879,25.879,27.832,33.691,-12.695,0
1540168724.659,28.320,28.320,29.785,34.180,23.926,0
1540168724.663,24.414,31.250,34.668,35.156,46.875,0
1540168724.666,24.414,32.227,30.762,34.180,-1.953,0
1540168724.670,22.949,30.273,29.297,31.738,30.273,0
1540168724.674,25.391,31.250,31.250,33.691,18.555,0
1540168724.678,23.926,29.297,26.855,32.227,2.441,0
1540168724.682,20.508,27.832,27.344,22.949,3.906,0
1540168724.686,22.949,31.738,31.250,24.902,2.930,0
1540168724.690,20.996,29.297,28.809,24.414,33.203,0
1540168724.694,13.672,28.809,26.855,19.531,49.316,0
1540168724.698,16.602,28.809,30.273,19.043,36.133,0
1540168724.702,22.461,31.738,36.621,19.043,29.297,0
1540168724.705,27.832,34.668,35.156,30.273,26.855,0
1540168724.709,26.367,34.180,30.762,36.621,12.695,0
1540168724.713,21.973,36.133,32.715,33.203,13.672,0
1540168724.717,21.973,35.645,35.156,29.297,34.180,0
1540168724.721,26.367,35.645,35.156,26.855,57.129,0
1540168724.725,28.809,36.133,31.738,30.273,76.660,0
1540168724.729,24.902,34.668,30.273,27.832,63.965,0
1540168724.733,22.461,31.250,34.668,28.809,-6.348,0
1540168724.737,24.902,31.738,39.551,33.203,-41.016,0
1540168724.741,26.367,36.133,33.203,33.691,31.250,0
1540168724.745,26.367,37.109,29.785,28.809,11.230,0
1540168724.748,29.785,35.645,33.691,19.531,-55.176,0
1540168724.752,34.180,37.109,29.297,21.484,-27.344,0
1540168724.756,37.109,41.016,30.273,25.879,25.879,0
1540168724.760,38.574,38.574,32.715,25.879,76.660,0
1540168724.764,30.762,37.598,33.203,22.949,73.730,0
1540168724.768,27.344,39.062,32.715,22.949,41.992,0
1540168724.772,30.762,36.133,29.297,27.344,29.297,0
1540168724.776,28.320,35.156,29.785,27.832,53.223,0
1540168724.780,26.367,36.133,32.227,23.438,61.035,0
1540168724.784,26.367,33.691,29.785,27.344,-15.137,0
1540168724.788,31.250,33.203,27.832,28.809,-8.789,0
1540168724.791,42.480,33.691,31.250,25.879,63.965,0
1540168724.795,39.062,29.785,30.762,18.555,52.734,0
1540168724.799,28.320,28.320,29.297,10.742,13.672,0
1540168724.803,25.391,32.227,24.414,12.207,49.805,0
1540168724.807,18.555,31.738,22.461,11.719,9.766,0
1540168724.811,11.719,28.809,26.855,9.277,-13.672,0
1540168724.815,20.020,33.203,32.715,13.672,41.016,0
1540168724.819,25.391,34.668,35.156,14.160,44.434,0
1540168724.823,24.414,27.832,29.785,12.207,83.496,0
1540168724.827,22.461,28.320,30.762,13.184,67.383,0
1540168724.830,23.438,31.738,35.156,14.648,30.762,0
1540168724.834,25.391,32.715,34.668,11.230,39.062,0
1540168724.838,22.949,33.203,29.297,2.930,30.762,0
1540168724.842,9.277,34.180,28.320,-2.441,58.594,0
1540168724.846,-0.977,34.180,29.785,-4.395,33.691,0
1540168724.850,3.906,33.691,28.809,-6.836,37.109,0
1540168724.854,4.883,37.109,27.832,-3.906,81.543,0
1540168724.858,2.930,41.504,25.391,-3.418,41.504,0
1540168724.862,-5.371,44.922,20.996,-10.254,20.508,0
1540168724.866,-14.648,46.875,17.578,-15.137,8.301,0
1540168724.870,-14.160,48.828,20.508,-13.184,-37.109,0
1540168724.873,-6.836,49.316,24.902,-4.883,-10.742,0
1540168724.877,-8.789,47.852,26.855,-1.465,88.867,0
1540168724.881,-14.648,50.781,28.320,-12.207,81.055,0
1540168724.885,-19.043,52.734,25.879,-25.391,37.598,0
1540168724.889,-23.438,49.805,20.996,-32.227,67.383,0
1540168724.893,-17.578,48.340,19.531,-38.086,59.570,0
1540168724.897,-11.719,53.223,19.531,-34.668,47.363,0
1540168724.901,-15.625,57.129,22.949,-23.438,44.434,0
1540168724.905,-13.184,53.223,24.414,-7.812,6.836,0
1540168724.909,-15.625,47.363,24.414,-5.859,49.805,0
1540168724.913,-20.996,44.434,22.461,-12.207,103.027,0
1540168724.916,-11.230,43.457,22.461,-6.836,62.500,0
1540168724.920,-5.859,41.016,30.273,11.230,15.137,0
1540168724.924,-3.418,39.062,38.574,9.766,8.301,0
1540168724.928,-1.465,39.551,33.203,-3.906,50.293,0
1540168724.932,0.977,39.062,28.320,3.418,85.449,0
1540168724.936,9.277,41.016,31.738,20.508,53.711,0
1540168724.940,15.137,39.551,30.273,22.949,21.973,0
1540168724.944,14.648,34.180,29.785,19.043,60.059,0
1540168724.948,16.113,35.156,32.715,18.555,48.828,0
1540168724.952,15.625,38.086,32.227,21.484,35.645,0
1540168724.955,17.578,37.598,28.809,27.344,81.543,0
1540168724.959,20.996,38.574,26.855,26.367,41.992,0
1540168724.963,20.508,37.109,28.809,22.461,-17.578,0
1540168724.967,18.066,36.133,29.785,21.973,9.277,0
1540168724.971,21.973,36.621,29.785,25.391,58.594,0
1540168724.975,29.297,34.668,31.250,27.832,57.617,0
1540168724.979,21.484,34.180,35.156,27.832,32.227,0
1540168724.983,20.508,34.668,34.668,26.367,-41.504,0
1540168724.987,26.855,34.668,31.738,32.227,-41.504,0
1540168724.991,33.691,35.645,32.715,39.551,4.395,0
1540168724.995,34.668,35.156,31.250,31.738,-15.625,0
1540168724.998,29.297,32.715,25.391,22.949,-15.137,0
1540168725.002,31.250,32.715,29.785,33.203,-6.836,0
1540168725.006,35.645,32.715,35.156,40.039,-33.691,0
1540168725.010,33.203,30.273,33.691,37.109,-3.418,0
1540168725.014,37.109,32.715,35.156,37.598,51.270,0
1540168725.018,47.363,35.156,30.762,41.992,25.879,0
1540168725.022,48.340,35.156,29.297,46.387,3.418,0
1540168725.026,46.387,34.668,36.621,47.852,-3.418,0
1540168725.030,47.363,32.715,39.062,45.898,6.836,0
1540168725.034,52.734,32.227,36.133,45.410,70.801,0
1540168725.038,60.059,33.203,32.715,49.805,30.762,0
1540168725.041,59.570,32.227,32.715,58.105,44.434,0
1540168725.045,56.641,34.180,34.180,57.129,86.914,1
1540168725.049,58.594,36.621,32.227,56.152,71.777,0
1540168725.053,55.176,33.203,29.785,57.129,66.406,0
1540168725.057,55.664,30.762,30.273,54.688,47.852,0
1540168725.061,57.129,33.691,35.645,53.223,40.527,0
1540168725.065,56.641,39.062,39.551,49.805,-15.137,0
1540168725.069,50.781,39.062,37.598,54.199,-37.109,0
1540168725.073,44.434,33.203,32.715,53.711,26.367,0
1540168725.077,42.480,32.715,33.203,41.504,22.949,0
1540168725.080,38.574,32.715,35.645,35.156,13.184,0
1540168725.084,35.645,31.250,34.668,37.598,18.555,0
1540168725.088,38.574,32.227,33.203,42.480,11.719,0
1540168725.092,40.039,30.273,29.785,42.480,70.801,0
1540168725.096,37.598,32.715,28.320,37.109,57.617,0
1540168725.100,39.551,35.645,29.785,32.715,32.715,0
1540168725.104,43.945,34.668,28.809,38.574,17.578,0
1540168725.108,42.480,34.668,33.691,42.480,64.941,0
1540168725.112,39.062,34.668,37.598,38.574,77.637,0
1540168725.116,37.109,33.203,33.203,34.668,14.160,0
1540168725.120,40.527,36.133,29.297,39.062,15.137,0
1540168725.123,42.969,36.621,25.879,41.992,-17.578,0
1540168725.127,35.645,34.180,28.320,38.574,11.230,0
1540168725.131,28.320,32.227,35.156,31.250,1.953,0
1540168725.135,30.762,29.785,36.133,25.879,-1.465,0
1540168725.139,36.621,29.297,36.621,27.832,52.734,0
1540168725.143,34.668,30.273,34.668,27.832,44.434,0
1540168725.147,30.762,29.785,33.691,26.855,21.484,0
1540168725.151,30.273,25.391,35.645,23.926,24.414,0
1540168725.155,36.621,26.855,38.086,32.715,24.902,0
1540168725.159,36.621,29.785,36.621,34.668,41.016,0
1540168725.163,31.738,28.809,34.668,32.227,62.012,0
1540168725.166,40.039,28.320,36.133,35.645,43.945,0
1540168725.170,44.922,27.344,32.715,34.180,20.020,0
1540168725.174,42.480,28.809,30.762,33.691,30.273,0
1540168725.178,36.621,27.832,36.133,36.133,38.086,0
1540168725.182,40.039,27.344,35.645,34.180,12.207,0
1540168725.186,47.852,29.785,33.691,40.039,31.738,0
1540168725.190,50.293,28.320,33.203,47.852,52.734,0
1540168725.194,42.480,25.391,34.180,47.852,4.883,0
1540168725.198,40.039,25.391,40.527,38.574,-46.875,0
1540168725.202,40.039,25.879,41.504,35.645,-8.301,0
1540168725.205,36.621,26.855,38.574,41.992,25.879,0
1540168725.209,38.574,27.832,37.109,34.180,-11.230,0
1540168725.213,41.016,28.320,36.621,30.273,36.133,0
1540168725.217,37.109,27.344,36.133,37.598,98.145,0
1540168725.221,43.457,27.832,33.691,35.645,19.531,0
1540168725.225,47.852,29.297,33.203,39.551,-29.297,0
1540168725.229,40.527,26.855,36.621,38.086,8.301,0
1540168725.233,35.645,27.832,31.250,32.715,6.348,0
1540168725.237,33.691,32.715,27.832,35.645,16.113,0
1540168725.241,31.738,32.715,34.668,34.668,52.734,0
1540168725.245,26.367,30.273,37.109,30.762,41.504,0
1540168725.248,28.320,32.227,39.551,30.762,30.273,0
1540168725.252,29.785,33.203,39.551,35.645,24.414,0
1540168725.256,34.180,33.691,34.668,26.855,7.324,0
1540168725.260,34.668,33.691,31.250,19.043,1.953,0
1540168725.264,29.785,30.762,31.738,14.648,5.859,0
1540168725.268,27.832,27.832,34.180,12.695,-17.090,0
1540168725.272,31.738,28.809,33.203,23.438,1.465,0
1540168725.276,32.227,28.320,32.715,20.508,40.527,0
1540168725.280,27.832,27.832,34.180,11.230,43.457,0
1540168725.284,23.926,26.367,35.645,12.207,69.336,0
1540168725.288,25.879,25.879,32.227,22.949,35.156,0
1540168725.291,32.227,30.762,28.809,26.367,-15.625,0
1540168725.295,28.320,30.273,33.203,24.902,6.836,0
1540168725.299,23.438,27.832,31.250,17.578,62.500,0
1540168725.303,22.461,25.879,32.715,17.578,53.711,0
1540168725.307,25.879,23.438,34.668,29.785,70.312,0
1540168725.311,23.438,24.414,35.645,30.273,73.730,0
1540168725.315,21.973,26.855,34.668,24.414,89.844,0
1540168725.319,24.414,25.391,30.273,22.461,60.547,0
1540168725.323,25.391,24.414,26.855,24.414,30.762,0
1540168725.327,26.367,23.926,22.461,30.762,46.875,0
1540168725.330,26.367,21.484,22.949,25.879,58.105,0
1540168725.334,20.996,23.926,27.344,17.090,70.312,0
1540168725.338,18.066,25.879,28.809,17.578,21.973,0
1540168725.342,14.648,27.832,29.297,21.484,14.648,0
1540168725.346,9.277,27.832,33.691,16.602,11.719,0
1540168725.350,17.090,27.832,35.645,13.672,-20.996,0
1540168725.354,25.879,27.832,35.156,19.043,26.367,0
1540168725.358,25.391,25.879,34.180,21.973,67.383,0
1540168725.362,23.438,24.902,31.738,24.414,20.020,0
1540168725.366,20.508,23.926,28.320,23.438,-10.742,0
1540168725.370,17.090,23.438,28.809,23.438,-3.906,0
1540168725.373,17.578,23.926,28.809,24.414,64.453,0
1540168725.377,19.531,26.855,27.344,22.461,73.242,0
1540168725.381,17.090,25.879,27.832,14.648,9.277,0
1540168725.385,19.531,25.879,26.855,14.160,-14.648,0
1540168725.389,28.809,28.809,28.320,19.531,16.602,0
1540168725.393,25.391,28.809,28.320,21.973,21.973,0
1540168725.397,19.531,27.832,22.949,17.578,5.371,0
1540168725.401,19.043,27.832,24.414,13.184,10.254,0
1540168725.405,18.066,26.855,28.320,17.090,30.762,0
1540168725.409,13.672,24.414,28.320,17.090,75.684,0
1540168725.413,10.742,24.414,29.297,12.695,46.387,0
1540168725.416,8.789,22.461,31.250,8.301,0.488,0
1540168725.420,7.324,19.531,26.855,5.859,-30.762,0
1540168725.424,9.766,21.484,22.949,14.648,-40.039,0
1540168725.428,3.906,23.438,24.414,15.137,-46.387,0
1540168725.432,-3.418,21.484,25.391,4.883,1.465,0
1540168725.436,-0.977,22.461,25.391,5.371,40.527,0
1540168725.440,6.348,26.855,29.785,18.555,8.789,0
1540168725.444,7.324,28.809,33.203,16.113,-18.555,0
1540168725.448,8.301,29.785,32.227,7.324,18.555,0
1540168725.452,9.766,30.273,30.273,10.254,71.777,0
1540168725.455,12.207,30.762,26.367,10.742,78.125,0
1540168725.459,11.230,33.203,27.344,9.766,34.668,0
1540168725.463,5.859,32.227,30.762,10.254,62.012,0
1540168725.467,9.766,31.250,29.297,9.766,61.523,0
1540168725.471,12.207,29.297,27.832,13.184,2.930,0
1540168725.475,16.113,28.320,28.809,17.090,23.438,0
1540168725.479,18.555,28.809,29.785,12.695,32.227,0
1540168725.483,15.137,28.320,30.762,10.742,21.973,0
1540168725.487,19.043,31.738,30.273,18.066,30.762,0
1540168725.491,35.156,39.062,30.762,21.484,26.855,0
1540168725.495,42.969,37.598,31.738,16.602,55.176,0
1540168725.498,48.340,35.156,34.180,14.648,62.500,0
1540168725.502,51.270,35.156,28.809,11.719,1.465,0
1540168725.506,52.246,35.156,24.414,17.090,31.738,0
1540168725.510,45.898,35.156,31.738,18.555,28.809,0
1540168725.514,39.062,34.668,29.297,6.348,-15.137,0
1540168725.518,34.180,34.668,24.902,5.859,25.391,0
1540168725.522,26.367,33.203,33.203,20.508,78.613,0
1540168725.526,20.020,30.273,35.645,26.855,96.680,0
1540168725.530,12.695,28.809,28.809,21.484,45.410,0
1540168725.534,8.789,28.320,24.414,24.902,-2.441,0
1540168725.538,10.254,28.320,27.344,22.949,40.039,0
1540168725.541,16.113,31.250,27.344,22.949,2.930,0
1540168725.545,20.508,30.273,26.855,24.902,-58.105,0
1540168725.549,24.902,29.785,28.809,21.973,18.555,0
1540168725.553,32.227,31.738,26.855,29.785,68.359,0
1540168725.557,29.785,28.809,26.855,32.715,91.797,0
1540168725.561,19.043,26.855,28.809,26.367,74.219,0
1540168725.565,18.066,28.320,30.762,21.973,-18.555,0
1540168725.569,16.113,28.809,33.691,24.902,-41.504,0
1540168725.573,15.625,31.250,30.273,25.879,18.066,0
1540168725.577,13.672,35.645,29.785,20.996,40.039,0
1540168725.580,9.277,30.762,31.250,16.113,31.250,0
1540168725.584,8.301,29.297,27.832,12.207,42.480,1
1540168725.588,13.184,31.250,25.879,12.695,25.879,0
1540168725.592,13.672,30.273,28.320,14.160,32.715,0
1540168725.596,13.672,33.691,30.762,18.066,68.848,0
1540168725.600,19.043,32.227,27.832,22.461,25.391,0
1540168725.604,23.926,30.273,25.879,27.344,-24.414,0
1540168725.608,24.902,28.320,27.344,28.320,-23.926,0
1540168725.612,20.996,24.902,31.738,24.414,-9.277,0
1540168725.616,20.508,26.367,27.344,23.926,-19.043,0
1540168725.620,20.996,24.902,31.738,25.879,-11.719,0
1540168725.623,21.973,24.902,39.551,30.273,42.480,0
1540168725.627,22.461,28.809,35.156,28.320,85.938,0
1540168725.631,26.367,29.785,34.668,24.414,115.723,0
1540168725.635,23.438,30.273,28.320,23.438,70.312,0
1540168725.639,18.066,28.809,24.414,25.391,12.207,0
1540168725.643,17.578,28.320,28.320,25.391,38.086,0
1540168725.647,14.648,29.297,28.320,13.184,86.914,0
1540168725.651,16.602,26.367,27.344,12.695,53.711,0
1540168725.655,20.508,27.832,22.461,22.949,-21.484,0
1540168725.659,25.391,32.227,21.973,21.484,19.043,0
1540168725.663,27.832,30.762,22.461,20.020,97.168,0
1540168725.666,20.996,28.320,24.414,22.461,72.754,0
1540168725.670,24.414,29.785,35.156,21.973,68.359,0
1540168725.674,35.156,32.715,38.086,28.809,69.824,0
1540168725.678,36.133,33.203,33.203,26.367,26.855,0
1540168725.682,30.273,31.738,31.738,12.207,26.855,0
1540168725.686,33.691,29.297,32.227,20.020,22.949,0
1540168725.690,36.133,27.832,28.320,22.949,20.020,0
1540168725.694,28.809,25.879,29.785,12.207,13.672,0
1540168725.698,32.227,26.367,30.273,15.137,-25.391,0
1540168725.702,34.180,28.809,30.762,22.949,22.461,0
1540168725.705,33.691,29.785,37.598,26.367,40.527,0
1540168725.709,36.133,29.785,32.715,21.484,17.578,0
1540168725.713,39.062,33.203,33.203,18.066,23.438,0
1540168725.717,39.062,31.250,40.039,22.949,56.641,0
1540168725.721,41.992,28.809,40.527,25.879,79.590,0
1540168725.725,39.551,31.250,37.109,27.832,7.812,0
1540168725.729,37.598,36.133,32.715,32.715,8.301,0
1540168725.733,41.504,41.016,38.574,33.203,49.805,0
1540168725.737,41.992,41.016,41.504,28.320,0.977,0
1540168725.741,41.016,38.574,35.645,30.273,-7.812,0
1540168725.745,39.551,37.598,34.180,37.109,49.316,0
1540168725.748,42.480,38.574,34.180,32.715,45.410,0
1540168725.752,42.969,41.016,32.227,28.809,32.227,0
1540168725.756,43.945,40.039,32.227,31.250,84.961,0
1540168725.760,42.480,37.109,25.879,29.297,40.039,0
1540168725.764,41.992,33.691,24.414,27.344,7.812,0
1540168725.768,38.574,31.738,29.785,27.832,-15.625,0
1540168725.772,38.086,33.203,32.227,29.297,18.555,0
1540168725.776,42.480,32.715,31.250,30.273,40.527,0
1540168725.780,35.645,28.809,29.297,25.391,-7.812,0
1540168725.784,29.785,28.809,28.320,29.785,30.273,0
1540168725.788,37.109,33.203,32.715,38.574,79.590,0
1540168725.791,36.133,33.203,37.109,38.086,62.500,0
1540168725.795,20.996,27.344,25.391,28.320,18.555,0
1540168725.799,14.160,25.879,21.973,19.043,26.855,0
1540168725.803,18.066,28.320,32.227,26.855,67.383,0
1540168725.807,24.414,30.273,34.668,32.715,60.547,0
1540168725.811,20.508,34.180,32.715,26.367,18.555,0
1540168725.815,18.066,34.668,30.273,27.344,27.344,0
1540168725.819,24.414,32.715,27.832,39.551,32.227,0
1540168725.823,31.250,33.203,27.832,43.945,73.730,0
1540168725.827,29.785,33.203,31.738,39.551,70.801,0
1540168725.830,24.414,32.227,30.762,33.691,41.992,0
1540168725.834,24.414,32.715,31.738,35.156,30.762,0
1540168725.838,28.320,33.691,29.785,35.645,-2.930,0
1540168725.842,27.832,31.738,25.391,33.203,-6.348,0
1540168725.846,24.902,32.227,30.273,34.668,25.391,0
1540168725.850,25.879,32.715,32.227,32.227,66.406,0
1540168725.854,32.227,33.203,30.273,33.691,51.758,0
1540168725.858,37.109,33.203,26.855,38.574,37.109,0
1540168725.862,33.203,32.715,25.879,37.109,1.953,0
1540168725.866,31.738,32.227,28.320,36.621,-11.230,0
1540168725.870,31.738,28.809,29.297,41.504,4.883,0
1540168725.873,32.715,29.785,29.297,37.598,-11.719,0
1540168725.877,27.344,31.738,20.508,31.738,36.133,0
1540168725.881,28.809,30.762,16.602,29.297,25.879,0
1540168725.885,34.180,34.180,28.320,33.203,10.742,0
1540168725.889,26.367,33.203,33.691,36.133,28.320,0
1540168725.893,22.949,30.762,31.250,33.691,18.555,0
1540168725.897,20.020,27.344,28.809,31.738,15.137,0
1540168725.901,20.508,28.320,30.762,27.832,40.039,0
1540168725.905,31.738,33.203,32.227,23.926,75.684,0
1540168725.909,32.227,30.273,31.738,23.926,67.383,0
1540168725.913,29.297,27.832,32.227,20.508,43.945,0
1540168725.916,30.273,31.250,27.832,19.531,-3.906,0
1540168725.920,26.855,32.227,25.879,16.113,64.941,0
1540168725.924,26.367,32.227,24.414,14.160,53.223,0
1540168725.928,27.832,34.180,22.949,15.625,35.645,0
1540168725.932,32.715,33.203,30.762,15.137,40.527,0
1540168725.936,31.738,31.250,31.738,20.020,-28.809,0
1540168725.940,33.691,28.809,30.273,24.414,-29.297,0
1540168725.944,31.738,28.809,28.809,19.043,-11.230,0
1540168725.948,22.949,31.250,21.484,14.160,43.457,0
1540168725.952,21.973,33.203,25.879,18.066,98.145,0
1540168725.955,31.250,32.715,30.762,22.949,58.105,0
1540168725.959,28.809,27.344,26.855,19.531,-15.137,0
1540168725.963,17.578,26.367,26.367,13.184,-6.836,0
1540168725.967,17.578,28.809,29.297,12.207,-14.160,0
1540168725.971,16.113,27.344,32.227,17.090,-1.953,0
1540168725.975,17.578,25.391,30.762,25.391,26.367,0
1540168725.979,22.949,27.832,28.320,27.344,-4.883,0
1540168725.983,20.508,27.344,22.949,23.438,11.230,0
1540168725.987,20.508,26.367,21.973,22.949,32.227,0
1540168725.991,27.832,26.367,27.344,24.902,21.973,0
1540168725.995,26.855,29.785,31.738,25.391,32.227,0
1540168725.998,26.367,31.250,32.715,23.438,55.664,0
1540168726.002,25.879,28.809,31.250,25.879,53.223,0
1540168726.006,26.855,28.809,31.738,28.320,45.410,0
1540168726.010,25.391,27.832,32.227,20.508,25.391,0
1540168726.014,20.020,28.320,30.762,19.043,-24.902,0
1540168726.018,19.043,30.762,27.344,19.043,24.902,0
1540168726.022,26.367,33.691,25.879,25.391,75.195,0
1540168726.026,28.320,36.133,29.297,29.785,23.926,0
1540168726.030,25.391,33.691,27.832,22.949,12.695,0
1540168726.034,24.414,35.156,24.414,22.949,5.859,0
1540168726.038,21.973,36.133,25.391,25.879,26.367,0
1540168726.041,25.391,33.691,28.809,22.949,13.184,0
1540168726.045,23.438,35.645,27.344,25.391,26.855,0
1540168726.049,20.508,32.715,25.879,28.809,83.008,0
1540168726.053,22.461,30.273,28.809,27.344,46.875,0
1540168726.057,26.367,32.227,33.203,34.180,41.016,0
1540168726.061,20.996,30.762,34.668,35.156,77.637,0
1540168726.065,20.996,31.738,32.227,24.414,85.938,0
1540168726.069,27.832,38.086,27.344,27.832,32.227,0
1540168726.073,33.691,40.527,21.484,36.621,-24.902,0
1540168726.077,29.297,37.109,26.855,35.645,17.090,0
1540168726.080,22.949,36.133,33.691,33.203,63.477,0
1540168726.084,28.809,38.574,25.391,27.832,51.758,0
1540168726.088,30.273,37.109,20.508,29.785,33.691,0
1540168726.092,28.320,34.180,26.855,29.785,-8.301,0
1540168726.096,29.785,35.156,24.902,26.367,-16.113,0
1540168726.100,29.297,34.668,25.391,25.879,-13.672,0
1540168726.104,30.273,33.203,28.320,26.367,10.254,0
1540168726.108,36.133,37.598,24.902,29.297,46.387,0
1540168726.112,36.133,39.062,25.879,25.879,59.082,1
1540168726.116,35.645,38.086,28.809,17.578,103.516,0
1540168726.120,34.180,36.621,30.273,25.391,69.824,0
1540168726.123,34.668,35.645,27.832,34.668,-13.672,0
1540168726.127,25.879,35.156,23.926,24.414,-25.391,0
1540168726.131,19.043,34.668,26.855,20.996,9.766,0
1540168726.135,22.949,35.645,24.902,29.785,-16.602,0
1540168726.139,24.414,33.203,25.391,34.180,1.953,0
1540168726.143,25.879,32.715,33.203,32.227,51.758,0
1540168726.147,33.203,33.203,34.180,31.738,60.059,0
1540168726.151,39.062,35.156,32.227,35.645,1.465,0
1540168726.155,37.598,34.180,30.273,38.086,9.766,0
1540168726.159,33.691,32.227,27.832,33.203,14.648,0
1540168726.163,29.297,35.645,26.855,27.344,-2.441,0
1540168726.166,31.738,39.062,31.250,28.809,21.484,0
1540168726.170,38.574,34.668,33.203,35.645,-16.602,0
1540168726.174,41.016,35.156,33.203,40.527,-25.879,0
1540168726.178,32.715,37.598,34.668,37.109,0.488,0
1540168726.182,26.855,32.715,38.574,33.691,14.648,0
1540168726.186,35.156,29.785,37.598,40.527,25.391,0
1540168726.190,34.180,30.273,31.250,36.621,-4.883,0
1540168726.194,16.602,31.738,31.738,28.320,37.109,0
1540168726.198,12.695,32.715,34.180,22.461,61.035,0
1540168726.202,20.996,31.250,33.203,21.484,33.691,0
1540168726.205,22.949,26.855,27.832,23.438,-16.113,0
1540168726.209,22.461,27.832,24.902,26.367,-17.578,0
1540168726.213,27.344,33.691,23.438,25.879,62.500,0
1540168726.217,29.297,39.551,23.438,22.461,124.023,0
1540168726.221,29.785,38.086,25.879,26.855,71.777,0
1540168726.225,29.785,33.691,25.391,25.879,3.906,0
1540168726.229,31.250,34.180,25.391,25.391,0.977,0
1540168726.233,31.738,31.738,29.297,23.926,26.367,0
1540168726.237,27.832,31.738,28.320,22.949,64.453,0
1540168726.241,25.879,29.785,26.367,27.832,95.703,0
1540168726.245,25.391,25.391,32.227,27.344,25.391,0
1540168726.248,22.949,21.973,31.250,21.484,-17.090,0
1540168726.252,20.508,21.484,26.855,23.926,1.953,0
1540168726.256,23.438,22.461,30.762,27.832,-17.090,0
1540168726.260,22.461,23.438,32.227,25.391,16.602,0
1540168726.264,22.949,26.367,28.320,26.367,19.531,0
1540168726.268,19.043,27.832,29.297,24.902,-0.977,0
1540168726.272,22.949,29.297,34.668,25.391,6.836,0
1540168726.276,24.902,29.297,37.598,24.902,56.152,0
1540168726.280,12.695,28.809,36.133,18.555,41.504,0
1540168726.284,14.648,30.762,30.273,21.973,-0.488,0
1540168726.288,24.414,30.273,29.785,29.297,16.602,0
1540168726.291,25.879,33.203,25.391,33.691,26.855,0
1540168726.295,18.555,33.691,20.996,30.273,46.387,0
1540168726.299,16.113,28.320,32.227,24.902,111.328,0
1540168726.303,20.020,28.320,34.180,20.996,98.633,0
1540168726.307,23.926,34.180,37.109,22.461,49.316,0
1540168726.311,27.832,35.645,40.527,26.367,23.926,0
1540168726.315,30.762,34.668,34.180,24.414,-2.930,0
1540168726.319,29.297,33.203,33.691,28.809,71.289,0
1540168726.323,29.297,32.227,35.156,35.156,67.871,0
1540168726.327,28.809,33.203,36.621,34.668,-4.395,0
1540168726.330,25.879,34.180,36.133,29.785,5.371,0
1540168726.334,24.414,30.273,30.273,26.855,5.371,0
1540168726.338,30.762,27.832,28.809,29.785,0.000,0
1540168726.342,34.668,28.809,28.809,32.715,41.992,0
1540168726.346,31.250,28.320,28.809,26.367,79.102,0
1540168726.350,33.203,28.320,31.250,25.391,1.465,0
1540168726.354,36.621,30.273,38.574,30.762,45.898,0
1540168726.358,35.645,31.738,37.109,34.668,76.172,0
1540168726.362,30.762,30.762,30.273,36.621,44.434,0
1540168726.366,32.227,32.715,28.809,34.180,53.223,0
1540168726.370,32.715,34.668,28.320,37.598,1.465,0
1540168726.373,38.086,33.203,32.715,39.062,39.551,0
1540168726.377,45.410,35.645,34.180,35.156,44.922,0
1540168726.381,45.410,34.180,38.086,27.832,61.523,0
1540168726.385,43.945,31.738,35.645,20.996,4.395,0
1540168726.389,53.711,32.715,33.691,25.391,-28.809,0
1540168726.393,59.082,35.156,31.738,20.508,35.645,0
1540168726.397,51.270,39.062,25.879,13.672,-3.418,0
1540168726.401,48.828,40.039,30.762,17.090,-16.113,0
1540168726.405,41.992,34.668,29.785,19.043,23.438,0
1540168726.409,35.645,32.715,28.809,23.926,39.551,0
1540168726.413,34.668,36.621,33.691,30.762,30.273,0
1540168726.416,35.156,35.645,31.738,34.668,4.883,0
1540168726.420,27.832,32.227,31.250,36.621,28.809,0
1540168726.424,27.344,32.227,33.203,40.527,66.406,0
1540168726.428,31.738,33.691,34.180,39.062,43.457,0
1540168726.432,24.414,31.738,36.621,33.203,12.695,0
1540168726.436,22.461,28.320,38.574,40.039,24.414,0
1540168726.440,24.414,25.879,34.668,40.527,56.152,0
1540168726.444,23.926,27.344,28.809,33.691,65.430,0
1540168726.448,26.367,29.785,31.738,34.668,38.574,0
1540168726.452,29.297,30.762,36.133,33.203,15.625,0
1540168726.455,32.227,32.227,31.250,36.621,12.695,0
1540168726.459,32.715,33.203,27.344,41.992,35.645,0
1540168726.463,31.738,34.668,24.902,38.086,56.152,0
1540168726.467,34.180,36.621,24.902,33.203,46.875,0
1540168726.471,34.180,34.668,26.855,40.527,17.578,0
1540168726.475,34.668,30.762,20.996,41.992,36.133,0
1540168726.479,34.180,31.250,21.484,34.180,60.059,0
1540168726.483,30.762,33.691,33.691,35.645,32.227,0
1540168726.487,33.203,34.180,35.645,33.691,46.875,0
1540168726.491,35.156,33.691,30.273,30.273,54.688,0
1540168726.495,29.297,30.273,26.367,31.250,49.805,0
1540168726.498,31.250,31.250,26.855,27.832,6.836,0
1540168726.502,34.180,38.086,31.738,29.297,-30.762,0
1540168726.506,33.203,39.551,36.133,32.227,-4.395,0
1540168726.510,27.344,37.109,34.668,28.320,26.855,0
1540168726.514,20.508,33.691,30.762,25.879,-12.695,0
1540168726.518,27.832,33.691,27.344,32.715,-73.730,0
1540168726.522,32.715,32.715,31.738,38.574,-32.227,0
1540168726.526,30.273,29.297,33.203,39.551,40.527,0
1540168726.530,32.227,31.250,31.250,35.645,67.871,0
1540168726.534,31.738,30.762,32.227,31.250,54.688,0
1540168726.538,34.668,27.832,28.809,34.668,1.953,0
1540168726.541,40.039,29.297,30.273,37.598,25.391,0
1540168726.545,36.621,31.738,30.273,29.785,68.359,0
1540168726.549,36.621,31.738,23.438,25.391,23.926,0
1540168726.553,37.109,30.762,23.926,27.344,-9.766,0
1540168726.557,41.504,33.691,30.762,31.250,-15.137,0
1540168726.561,41.504,34.668,35.645,29.785,19.531,0
1540168726.565,36.133,34.180,32.715,23.438,68.848,0
1540168726.569,42.969,31.738,32.227,27.832,108.887,0
1540168726.573,44.434,28.809,32.715,32.227,103.027,0
1540168726.577,39.551,30.762,27.832,26.855,60.059,0
1540168726.580,37.109,28.809,20.508,19.043,14.648,0
1540168726.584,39.062,27.344,18.555,24.414,10.254,0
1540168726.588,45.898,30.273,23.926,30.762,63.965,0
1540168726.592,42.969,30.273,25.391,25.879,63.477,0
1540168726.596,38.574,34.180,28.320,21.484,42.480,0
1540168726.600,38.574,35.645,32.715,21.973,-3.418,0
1540168726.604,39.551,29.297,33.691,27.344,15.625,0
1540168726.608,41.016,27.832,33.691,30.762,30.762,0
1540168726.612,32.715,28.320,34.668,23.438,54.688,0
1540168726.616,28.809,29.297,35.645,19.043,57.129,0
1540168726.620,33.691,30.762,35.156,23.926,19.531,0
1540168726.623,40.039,28.809,31.738,29.785,21.973,0
1540168726.627,41.504,30.273,34.180,32.227,6.348,0
1540168726.631,38.574,31.738,34.180,27.832,-42.480,0
1540168726.635,38.086,31.250,29.785,27.344,-11.719,0
1540168726.639,40.039,32.227,27.344,32.715,62.012,0
1540168726.643,35.156,34.180,25.879,31.250,31.738,0
1540168726.647,28.809,31.738,29.785,21.484,17.090,0
1540168726.651,25.391,28.809,35.156,20.508,63.477,0
1540168726.655,27.832,29.785,38.574,28.809,60.547,0
1540168726.659,35.156,27.832,34.668,27.832,-16.602,0
1540168726.663,31.250,26.367,30.273,22.949,-105.469,0
1540168726.666,21.484,23.926,30.762,20.996,-35.156,0
1540168726.670,25.391,23.438,34.668,28.809,16.113,0
1540168726.674,33.203,27.344,31.738,35.645,12.207,0
1540168726.678,26.855,26.367,26.367,27.832,33.691,0
1540168726.682,20.996,26.367,27.344,22.949,8.301,0
1540168726.686,17.090,25.879,28.320,22.461,53.223,0
1540168726.690,21.973,26.855,31.250,27.344,52.246,0
1540168726.694,23.926,28.320,29.785,30.762,11.719,0
1540168726.698,16.602,26.367,26.367,26.367,42.969,0
1540168726.702,15.137,25.391,27.344,28.809,33.691,0
1540168726.705,19.043,27.344,33.691,35.645,44.434,0
1540168726.709,21.484,30.273,37.109,33.691,32.227,0
1540168726.713,14.160,31.250,32.227,24.414,22.461,0
1540168726.717,16.113,34.180,26.855,21.973,30.273,0
1540168726.721,24.902,35.156,25.879,28.320,41.016,0
1540168726.725,21.973,34.668,26.367,29.785,60.059,0
1540168726.729,16.113,33.691,25.391,25.879,87.402,0
1540168726.733,14.648,31.250,24.902,24.902,53.711,0
1540168726.737,14.160,31.250,26.855,25.391,30.273,0
1540168726.741,21.484,33.691,27.344,24.902,78.613,0
1540168726.745,18.555,31.738,26.367,26.855,59.082,1
1540168726.748,15.625,30.273,23.438,25.391,48.340,0
1540168726.752,21.973,29.785,21.484,28.320,49.805,0
1540168726.756,22.461,27.344,27.344,30.273,42.969,0
1540168726.760,16.113,27.344,35.156,25.391,23.926,0
1540168726.764,12.207,29.297,32.715,21.973,-12.695,0
1540168726.768,13.672,31.250,32.227,20.996,4.883,0
1540168726.772,16.602,29.785,32.227,22.461,28.320,0
1540168726.776,11.230,23.438,33.691,20.508,20.508,0
1540168726.780,8.301,21.484,35.156,15.137,59.570,0
1540168726.784,14.648,21.484,31.738,17.090,67.383,0
1540168726.788,18.555,22.949,29.297,23.926,54.688,0
1540168726.791,18.555,24.902,28.320,20.508,56.152,0
1540168726.795,14.160,26.367,26.855,18.555,20.996,0
1540168726.799,17.090,29.297,24.902,21.973,-17.090,0
1540168726.803,19.531,25.879,26.367,26.855,2.930,0
1540168726.807,15.137,20.508,26.855,29.785,52.734,0
1540168726.811,11.230,20.508,26.855,26.855,15.137,0
1540168726.815,17.090,24.414,29.297,24.414,-12.695,0
1540168726.819,21.973,26.855,28.320,26.855,20.508,0
1540168726.823,22.461,26.855,31.738,31.738,22.461,0
1540168726.827,20.508,28.320,26.367,29.785,18.555,0
1540168726.830,24.414,27.344,24.414,31.250,18.066,0
1540168726.834,26.855,24.414,31.738,30.273,-7.324,0
1540168726.838,26.855,27.344,32.227,30.762,6.836,0
1540168726.842,26.855,30.762,30.273,36.621,46.387,0
1540168726.846,23.926,27.832,26.855,31.250,45.898,0
1540168726.850,21.973,27.344,26.855,26.367,60.547,0
1540168726.854,19.531,31.738,31.250,19.043,64.941,0
1540168726.858,20.020,33.691,32.715,20.508,-13.184,0
1540168726.862,23.438,34.668,33.691,24.414,-22.461,0
1540168726.866,22.949,31.738,31.250,17.090,27.832,0
1540168726.870,21.484,27.832,18.066,23.438,29.297,0
1540168726.873,28.809,27.344,19.043,29.785,55.664,0
1540168726.877,28.320,29.297,27.344,22.461,58.594,0
1540168726.881,26.855,28.809,27.344,20.996,43.945,0
1540168726.885,23.926,28.320,30.762,21.973,40.527,0
1540168726.889,25.879,33.203,30.273,20.508,16.113,0
1540168726.893,26.367,33.691,25.391,21.484,38.086,0
1540168726.897,20.996,33.691,27.344,19.043,65.918,0
1540168726.901,22.949,36.621,23.926,14.648,45.410,0
1540168726.905,31.250,33.203,21.484,17.578,0.000,0
1540168726.909,31.250,34.180,27.344,22.949,5.859,0
1540168726.913,23.926,33.691,29.297,19.043,56.152,0
1540168726.916,21.973,28.809,29.297,20.020,43.457,0
1540168726.920,27.832,30.762,24.902,29.297,37.109,0
1540168726.924,31.738,31.250,22.461,33.691,35.645,0
1540168726.928,30.273,28.809,29.297,35.156,25.391,0
1540168726.932,28.320,27.832,29.297,29.297,63.477,0
1540168726.936,27.832,29.785,28.320,26.855,91.797,0
1540168726.940,30.273,27.832,30.273,33.203,16.113,0
1540168726.944,23.438,27.832,31.738,28.809,-9.766,0
1540168726.948,17.578,31.250,29.785,23.926,-46.875,0
1540168726.952,20.020,30.273,26.855,20.508,-24.414,0
1540168726.955,21.973,29.785,23.926,19.043,38.086,0
1540168726.959,19.531,31.250,27.832,21.484,10.254,0
1540168726.963,21.484,29.785,28.809,25.391,45.898,0
1540168726.967,22.949,29.785,20.996,21.973,28.809,0
